Time (ps), RMSD (nm)
0.000, 0.001
0.100, 0.192
0.200, 0.198
0.300, 0.207
0.400, 0.176
0.500, 0.186
0.600, 0.200
0.700, 0.200
0.800, 0.214
0.900, 0.184
1.000, 0.214
1.100, 0.193
1.200, 0.205
1.300, 0.177
1.400, 0.175
1.500, 0.194
1.600, 0.163
1.700, 0.170
1.800, 0.186
1.900, 0.212
2.000, 0.194
2.100, 0.193
2.200, 0.197
2.300, 0.214
2.400, 0.218
2.500, 0.202
2.600, 0.195
2.700, 0.207
2.800, 0.193
2.900, 0.215
3.000, 0.203
3.100, 0.189
3.200, 0.189
3.300, 0.173
3.400, 0.190
3.500, 0.208
3.600, 0.209
3.700, 0.221
3.800, 0.205
3.900, 0.231
4.000, 0.223
4.100, 0.204
4.200, 0.211
4.300, 0.209
4.400, 0.182
4.500, 0.195
4.600, 0.194
4.700, 0.180
4.800, 0.195
4.900, 0.208
5.000, 0.211
5.100, 0.217
5.200, 0.198
5.300, 0.204
5.400, 0.191
5.500, 0.188
5.600, 0.187
5.700, 0.198
5.800, 0.225
5.900, 0.208
6.000, 0.207
6.100, 0.201
6.200, 0.200
6.300, 0.216
6.400, 0.195
6.500, 0.184
6.600, 0.190
6.700, 0.175
6.800, 0.176
6.900, 0.176
7.000, 0.197
7.100, 0.186
7.200, 0.194
7.300, 0.173
7.400, 0.205
7.500, 0.184
7.600, 0.201
7.700, 0.193
7.800, 0.188
7.900, 0.177
8.000, 0.206
8.100, 0.184
8.200, 0.192
8.300, 0.166
8.400, 0.207
8.500, 0.204
8.600, 0.179
8.700, 0.174
8.800, 0.178
8.900, 0.186
9.000, 0.181
9.100, 0.172
9.200, 0.184
9.300, 0.194
9.400, 0.191
9.500, 0.179
9.600, 0.183
9.700, 0.174
9.800, 0.183
9.900, 0.197
10.000, 0.190
10.100, 0.185
10.200, 0.175
10.300, 0.195
10.400, 0.191
10.500, 0.173
10.600, 0.179
10.700, 0.177
10.800, 0.178
10.900, 0.183
11.000, 0.191
11.100, 0.182
11.200, 0.194
11.300, 0.194
11.400, 0.172
11.500, 0.183
11.600, 0.207
11.700, 0.189
11.800, 0.183
11.900, 0.170
12.000, 0.172
12.100, 0.203
12.200, 0.190
12.300, 0.190
12.400, 0.186
12.500, 0.212
12.600, 0.196
12.700, 0.201
12.800, 0.213
12.900, 0.204
13.000, 0.186
13.100, 0.216
13.200, 0.186
13.300, 0.177
13.400, 0.199
13.500, 0.200
13.600, 0.204
13.700, 0.175
13.800, 0.179
13.900, 0.195
14.000, 0.186
14.100, 0.183
14.200, 0.193
14.300, 0.185
14.400, 0.180
14.500, 0.189
14.600, 0.198
14.700, 0.189
14.800, 0.187
14.900, 0.190
15.000, 0.195
15.100, 0.208
15.200, 0.219
15.300, 0.210
15.400, 0.209
15.500, 0.201
15.600, 0.188
15.700, 0.203
15.800, 0.222
15.900, 0.218
16.000, 0.200
16.100, 0.192
16.200, 0.222
16.300, 0.240
16.400, 0.226
16.500, 0.191
16.600, 0.201
16.700, 0.206
16.800, 0.198
16.900, 0.192
17.000, 0.216
17.100, 0.197
17.200, 0.193
17.300, 0.188
17.400, 0.148
17.500, 0.175
17.600, 0.165
17.700, 0.171
17.800, 0.160
17.900, 0.163
18.000, 0.160
18.100, 0.161
18.200, 0.192
18.300, 0.184
18.400, 0.225
18.500, 0.173
18.600, 0.186
18.700, 0.170
18.800, 0.161
18.900, 0.172
19.000, 0.190
19.100, 0.179
19.200, 0.180
19.300, 0.163
19.400, 0.185
19.500, 0.166
19.600, 0.185
19.700, 0.188
19.800, 0.163
19.900, 0.174
20.000, 0.192
20.100, 0.191
20.200, 0.189
20.300, 0.169
20.400, 0.143
20.500, 0.170
20.600, 0.157
20.700, 0.148
20.800, 0.150
20.900, 0.188
21.000, 0.198
21.100, 0.173
21.200, 0.181
21.300, 0.187
21.400, 0.145
21.500, 0.178
21.600, 0.156
21.700, 0.185
21.800, 0.171
21.900, 0.178
22.000, 0.173
22.100, 0.166
22.200, 0.180
22.300, 0.181
22.400, 0.167
22.500, 0.176
22.600, 0.171
22.700, 0.187
22.800, 0.162
22.900, 0.154
23.000, 0.158
23.100, 0.173
23.200, 0.163
23.300, 0.153
23.400, 0.134
23.500, 0.181
23.600, 0.137
23.700, 0.139
23.800, 0.143
23.900, 0.145
24.000, 0.149
24.100, 0.133
24.200, 0.135
24.300, 0.143
24.400, 0.188
24.500, 0.175
24.600, 0.177
24.700, 0.181
24.800, 0.184
24.900, 0.194
25.000, 0.208
25.100, 0.212
25.200, 0.204
25.300, 0.199
25.400, 0.205
25.500, 0.174
25.600, 0.194
25.700, 0.191
25.800, 0.177
25.900, 0.202
26.000, 0.197
26.100, 0.208
26.200, 0.218
26.300, 0.210
26.400, 0.219
26.500, 0.223
26.600, 0.213
26.700, 0.195
26.800, 0.209
26.900, 0.223
27.000, 0.233
27.100, 0.193
27.200, 0.188
27.300, 0.205
27.400, 0.198
27.500, 0.186
27.600, 0.186
27.700, 0.186
27.800, 0.209
27.900, 0.190
28.000, 0.213
28.100, 0.221
28.200, 0.239
28.300, 0.212
28.400, 0.219
28.500, 0.172
28.600, 0.164
28.700, 0.162
28.800, 0.190
28.900, 0.211
29.000, 0.213
29.100, 0.242
29.200, 0.231
29.300, 0.226
29.400, 0.236
29.500, 0.248
29.600, 0.200
29.700, 0.180
29.800, 0.187
29.900, 0.181
30.000, 0.204
30.100, 0.192
30.200, 0.195
30.300, 0.208
30.400, 0.228
30.500, 0.207
30.600, 0.203
30.700, 0.181
30.800, 0.210
30.900, 0.235
31.000, 0.215
31.100, 0.260
31.200, 0.258
31.300, 0.251
31.400, 0.260
31.500, 0.248
31.600, 0.235
31.700, 0.241
31.800, 0.223
31.900, 0.236
32.000, 0.240
32.100, 0.249
32.200, 0.257
32.300, 0.226
32.400, 0.182
32.500, 0.158
32.600, 0.191
32.700, 0.211
32.800, 0.183
32.900, 0.163
33.000, 0.163
33.100, 0.163
33.200, 0.165
33.300, 0.189
33.400, 0.188
33.500, 0.156
33.600, 0.171
33.700, 0.159
33.800, 0.183
33.900, 0.184
34.000, 0.166
34.100, 0.171
34.200, 0.139
34.300, 0.162
34.400, 0.173
34.500, 0.178
34.600, 0.194
34.700, 0.166
34.800, 0.175
34.900, 0.188
35.000, 0.170
35.100, 0.183
35.200, 0.171
35.300, 0.181
35.400, 0.171
35.500, 0.169
35.600, 0.182
35.700, 0.165
35.800, 0.176
35.900, 0.171
36.000, 0.200
36.100, 0.166
36.200, 0.172
36.300, 0.166
36.400, 0.161
36.500, 0.165
36.600, 0.162
36.700, 0.173
36.800, 0.183
36.900, 0.182
37.000, 0.165
37.100, 0.171
37.200, 0.178
37.300, 0.176
37.400, 0.178
37.500, 0.174
37.600, 0.173
37.700, 0.153
37.800, 0.149
37.900, 0.153
38.000, 0.153
38.100, 0.166
38.200, 0.145
38.300, 0.166
38.400, 0.180
38.500, 0.167
38.600, 0.139
38.700, 0.164
38.800, 0.157
38.900, 0.140
39.000, 0.120
39.100, 0.147
39.200, 0.158
39.300, 0.158
39.400, 0.174
39.500, 0.165
39.600, 0.166
39.700, 0.165
39.800, 0.165
39.900, 0.173
40.000, 0.167
40.100, 0.176
40.200, 0.168
40.300, 0.151
40.400, 0.158
40.500, 0.172
40.600, 0.156
40.700, 0.179
40.800, 0.181
40.900, 0.169
41.000, 0.186
41.100, 0.165
41.200, 0.163
41.300, 0.149
41.400, 0.150
41.500, 0.158
41.600, 0.169
41.700, 0.168
41.800, 0.173
41.900, 0.167
42.000, 0.166
42.100, 0.169
42.200, 0.173
42.300, 0.163
42.400, 0.175
42.500, 0.164
42.600, 0.175
42.700, 0.170
42.800, 0.158
42.900, 0.157
43.000, 0.174
43.100, 0.185
43.200, 0.167
43.300, 0.163
43.400, 0.172
43.500, 0.181
43.600, 0.174
43.700, 0.160
43.800, 0.159
43.900, 0.142
44.000, 0.135
44.100, 0.129
44.200, 0.141
44.300, 0.133
44.400, 0.145
44.500, 0.140
44.600, 0.146
44.700, 0.164
44.800, 0.165
44.900, 0.159
45.000, 0.148
45.100, 0.144
45.200, 0.143
45.300, 0.144
45.400, 0.149
45.500, 0.163
45.600, 0.174
45.700, 0.172
45.800, 0.166
45.900, 0.158
46.000, 0.178
46.100, 0.162
46.200, 0.155
46.300, 0.156
46.400, 0.173
46.500, 0.176
46.600, 0.166
46.700, 0.155
46.800, 0.159
46.900, 0.163
47.000, 0.168
47.100, 0.153
47.200, 0.170
47.300, 0.156
47.400, 0.154
47.500, 0.161
47.600, 0.149
47.700, 0.147
47.800, 0.147
47.900, 0.145
48.000, 0.147
48.100, 0.152
48.200, 0.155
48.300, 0.156
48.400, 0.152
48.500, 0.161
48.600, 0.143
48.700, 0.149
48.800, 0.153
48.900, 0.151
49.000, 0.152
49.100, 0.150
49.200, 0.163
49.300, 0.144
49.400, 0.148
49.500, 0.142
49.600, 0.149
49.700, 0.175
49.800, 0.136
49.900, 0.149
50.000, 0.153
50.100, 0.142
50.200, 0.168
50.300, 0.154
50.400, 0.148
50.500, 0.154
50.600, 0.153
50.700, 0.152
50.800, 0.151
50.900, 0.162
51.000, 0.167
51.100, 0.170
51.200, 0.164
51.300, 0.175
51.400, 0.174
51.500, 0.149
51.600, 0.163
51.700, 0.153
51.800, 0.150
51.900, 0.145
52.000, 0.167
52.100, 0.149
52.200, 0.145
52.300, 0.158
52.400, 0.158
52.500, 0.173
52.600, 0.171
52.700, 0.173
52.800, 0.172
52.900, 0.160
53.000, 0.164
53.100, 0.184
53.200, 0.138
53.300, 0.146
53.400, 0.153
53.500, 0.144
53.600, 0.158
53.700, 0.154
53.800, 0.149
53.900, 0.181
54.000, 0.156
54.100, 0.156
54.200, 0.169
54.300, 0.191
54.400, 0.173
54.500, 0.161
54.600, 0.139
54.700, 0.144
54.800, 0.136
54.900, 0.146
55.000, 0.152
55.100, 0.146
55.200, 0.152
55.300, 0.163
55.400, 0.158
55.500, 0.154
55.600, 0.142
55.700, 0.142
55.800, 0.174
55.900, 0.160
56.000, 0.152
56.100, 0.157
56.200, 0.169
56.300, 0.160
56.400, 0.151
56.500, 0.131
56.600, 0.136
56.700, 0.146
56.800, 0.135
56.900, 0.154
57.000, 0.168
57.100, 0.155
57.200, 0.165
57.300, 0.159
57.400, 0.158
57.500, 0.174
57.600, 0.160
57.700, 0.161
57.800, 0.166
57.900, 0.172
58.000, 0.169
58.100, 0.184
58.200, 0.178
58.300, 0.228
58.400, 0.187
58.500, 0.181
58.600, 0.178
58.700, 0.176
58.800, 0.177
58.900, 0.148
59.000, 0.146
59.100, 0.148
59.200, 0.138
59.300, 0.168
59.400, 0.152
59.500, 0.154
59.600, 0.144
59.700, 0.169
59.800, 0.175
59.900, 0.171
60.000, 0.174
60.100, 0.175
60.200, 0.180
60.300, 0.175
60.400, 0.184
60.500, 0.171
60.600, 0.175
60.700, 0.177
60.800, 0.170
60.900, 0.189
61.000, 0.175
61.100, 0.179
61.200, 0.176
61.300, 0.166
61.400, 0.164
61.500, 0.188
61.600, 0.180
61.700, 0.197
61.800, 0.163
61.900, 0.172
62.000, 0.160
62.100, 0.159
62.200, 0.185
62.300, 0.175
62.400, 0.170
62.500, 0.199
62.600, 0.203
62.700, 0.183
62.800, 0.176
62.900, 0.184
63.000, 0.178
63.100, 0.172
63.200, 0.189
63.300, 0.180
63.400, 0.178
63.500, 0.193
63.600, 0.183
63.700, 0.174
63.800, 0.162
63.900, 0.174
64.000, 0.169
64.100, 0.179
64.200, 0.175
64.300, 0.173
64.400, 0.180
64.500, 0.186
64.600, 0.183
64.700, 0.188
64.800, 0.179
64.900, 0.174
65.000, 0.169
65.100, 0.171
65.200, 0.185
65.300, 0.184
65.400, 0.179
65.500, 0.164
65.600, 0.173
65.700, 0.178
65.800, 0.187
65.900, 0.192
66.000, 0.173
66.100, 0.186
66.200, 0.192
66.300, 0.178
66.400, 0.177
66.500, 0.196
66.600, 0.191
66.700, 0.205
66.800, 0.213
66.900, 0.178
67.000, 0.176
67.100, 0.203
67.200, 0.205
67.300, 0.186
67.400, 0.209
67.500, 0.214
67.600, 0.183
67.700, 0.181
67.800, 0.182
67.900, 0.179
68.000, 0.181
68.100, 0.184
68.200, 0.182
68.300, 0.179
68.400, 0.183
68.500, 0.168
68.600, 0.189
68.700, 0.173
68.800, 0.182
68.900, 0.163
69.000, 0.180
69.100, 0.168
69.200, 0.177
69.300, 0.177
69.400, 0.170
69.500, 0.179
69.600, 0.160
69.700, 0.178
69.800, 0.184
69.900, 0.167
70.000, 0.182
70.100, 0.170
70.200, 0.178
70.300, 0.163
70.400, 0.176
70.500, 0.172
70.600, 0.188
70.700, 0.190
70.800, 0.208
70.900, 0.196
71.000, 0.183
71.100, 0.167
71.200, 0.185
71.300, 0.180
71.400, 0.185
71.500, 0.186
71.600, 0.163
71.700, 0.175
71.800, 0.171
71.900, 0.163
72.000, 0.186
72.100, 0.167
72.200, 0.167
72.300, 0.171
72.400, 0.177
72.500, 0.192
72.600, 0.180
72.700, 0.176
72.800, 0.189
72.900, 0.166
73.000, 0.176
73.100, 0.163
73.200, 0.177
73.300, 0.193
73.400, 0.194
73.500, 0.182
73.600, 0.171
73.700, 0.180
73.800, 0.186
73.900, 0.201
74.000, 0.197
74.100, 0.191
74.200, 0.180
74.300, 0.159
74.400, 0.156
74.500, 0.159
74.600, 0.171
74.700, 0.157
74.800, 0.171
74.900, 0.194
75.000, 0.204
75.100, 0.181
75.200, 0.195
75.300, 0.199
75.400, 0.218
75.500, 0.197
75.600, 0.210
75.700, 0.211
75.800, 0.242
75.900, 0.195
76.000, 0.168
76.100, 0.186
76.200, 0.173
76.300, 0.183
76.400, 0.182
76.500, 0.192
76.600, 0.183
76.700, 0.181
76.800, 0.193
76.900, 0.184
77.000, 0.186
77.100, 0.182
77.200, 0.166
77.300, 0.178
77.400, 0.193
77.500, 0.186
77.600, 0.215
77.700, 0.202
77.800, 0.192
77.900, 0.191
78.000, 0.216
78.100, 0.198
78.200, 0.203
78.300, 0.196
78.400, 0.226
78.500, 0.203
78.600, 0.192
78.700, 0.205
78.800, 0.213
78.900, 0.204
79.000, 0.192
79.100, 0.199
79.200, 0.168
79.300, 0.181
79.400, 0.184
79.500, 0.203
79.600, 0.218
79.700, 0.215
79.800, 0.198
79.900, 0.199
80.000, 0.184
80.100, 0.192
80.200, 0.190
80.300, 0.195
80.400, 0.187
80.500, 0.187
80.600, 0.180
80.700, 0.186
80.800, 0.190
80.900, 0.196
81.000, 0.201
81.100, 0.212
81.200, 0.201
81.300, 0.178
81.400, 0.177
81.500, 0.192
81.600, 0.207
81.700, 0.225
81.800, 0.198
81.900, 0.196
82.000, 0.162
82.100, 0.164
82.200, 0.184
82.300, 0.190
82.400, 0.191
82.500, 0.195
82.600, 0.181
82.700, 0.197
82.800, 0.189
82.900, 0.208
83.000, 0.198
83.100, 0.214
83.200, 0.207
83.300, 0.184
83.400, 0.191
83.500, 0.187
83.600, 0.170
83.700, 0.175
83.800, 0.187
83.900, 0.183
84.000, 0.197
84.100, 0.186
84.200, 0.171
84.300, 0.184
84.400, 0.204
84.500, 0.181
84.600, 0.185
84.700, 0.198
84.800, 0.192
84.900, 0.187
85.000, 0.182
85.100, 0.191
85.200, 0.182
85.300, 0.165
85.400, 0.179
85.500, 0.188
85.600, 0.182
85.700, 0.192
85.800, 0.196
85.900, 0.221
86.000, 0.198
86.100, 0.211
86.200, 0.203
86.300, 0.208
86.400, 0.193
86.500, 0.197
86.600, 0.186
86.700, 0.188
86.800, 0.235
86.900, 0.215
87.000, 0.231
87.100, 0.202
87.200, 0.182
87.300, 0.192
87.400, 0.192
87.500, 0.201
87.600, 0.188
87.700, 0.195
87.800, 0.183
87.900, 0.209
88.000, 0.184
88.100, 0.193
88.200, 0.194
88.300, 0.170
88.400, 0.184
88.500, 0.185
88.600, 0.200
88.700, 0.229
88.800, 0.228
88.900, 0.204
89.000, 0.203
89.100, 0.173
89.200, 0.179
89.300, 0.171
89.400, 0.180
89.500, 0.171
89.600, 0.182
89.700, 0.176
89.800, 0.159
89.900, 0.179
90.000, 0.189
90.100, 0.188
90.200, 0.186
90.300, 0.220
90.400, 0.191
90.500, 0.206
90.600, 0.208
90.700, 0.200
90.800, 0.194
90.900, 0.219
91.000, 0.225
91.100, 0.206
91.200, 0.197
91.300, 0.200
91.400, 0.201
91.500, 0.210
91.600, 0.219
91.700, 0.193
91.800, 0.202
91.900, 0.210
92.000, 0.214
92.100, 0.221
92.200, 0.235
92.300, 0.197
92.400, 0.187
92.500, 0.196
92.600, 0.206
92.700, 0.181
92.800, 0.180
92.900, 0.190
93.000, 0.175
93.100, 0.197
93.200, 0.184
93.300, 0.148
93.400, 0.168
93.500, 0.174
93.600, 0.177
93.700, 0.183
93.800, 0.182
93.900, 0.171
94.000, 0.182
94.100, 0.177
94.200, 0.176
94.300, 0.144
94.400, 0.174
94.500, 0.177
94.600, 0.173
94.700, 0.167
94.800, 0.173
94.900, 0.170
95.000, 0.138
95.100, 0.137
95.200, 0.142
95.300, 0.145
95.400, 0.147
95.500, 0.148
95.600, 0.133
95.700, 0.144
95.800, 0.152
95.900, 0.149
96.000, 0.155
96.100, 0.163
96.200, 0.164
96.300, 0.167
96.400, 0.171
96.500, 0.186
96.600, 0.187
96.700, 0.191
96.800, 0.166
96.900, 0.171
97.000, 0.177
97.100, 0.196
97.200, 0.183
97.300, 0.160
97.400, 0.160
97.500, 0.179
97.600, 0.167
97.700, 0.148
97.800, 0.168
97.900, 0.178
98.000, 0.173
98.100, 0.167
98.200, 0.150
98.300, 0.177
98.400, 0.163
98.500, 0.195
98.600, 0.167
98.700, 0.165
98.800, 0.160
98.900, 0.173
99.000, 0.184
99.100, 0.190
99.200, 0.178
99.300, 0.172
99.400, 0.167
99.500, 0.167
99.600, 0.159
99.700, 0.162
99.800, 0.154
99.900, 0.153
100.000, 0.160
100.100, 0.171
100.200, 0.170
100.300, 0.167
100.400, 0.173
100.500, 0.179
100.600, 0.180
100.700, 0.175
100.800, 0.170
100.900, 0.167
101.000, 0.157
101.100, 0.168
101.200, 0.162
101.300, 0.169
101.400, 0.182
101.500, 0.183
101.600, 0.189
101.700, 0.176
101.800, 0.185
101.900, 0.193
102.000, 0.202
102.100, 0.198
102.200, 0.175
102.300, 0.178
102.400, 0.184
102.500, 0.183
102.600, 0.179
102.700, 0.165
102.800, 0.181
102.900, 0.181
103.000, 0.192
103.100, 0.159
103.200, 0.153
103.300, 0.160
103.400, 0.149
103.500, 0.177
103.600, 0.181
103.700, 0.165
103.800, 0.190
103.900, 0.196
104.000, 0.174
104.100, 0.184
104.200, 0.184
104.300, 0.178
104.400, 0.174
104.500, 0.149
104.600, 0.161
104.700, 0.185
104.800, 0.191
104.900, 0.167
105.000, 0.182
105.100, 0.202
105.200, 0.211
105.300, 0.178
105.400, 0.183
105.500, 0.184
105.600, 0.196
105.700, 0.176
105.800, 0.174
105.900, 0.172
106.000, 0.195
106.100, 0.200
106.200, 0.199
106.300, 0.182
106.400, 0.170
106.500, 0.181
106.600, 0.194
106.700, 0.205
106.800, 0.203
106.900, 0.209
107.000, 0.191
107.100, 0.217
107.200, 0.197
107.300, 0.197
107.400, 0.171
107.500, 0.198
107.600, 0.183
107.700, 0.202
107.800, 0.167
107.900, 0.203
108.000, 0.192
108.100, 0.181
108.200, 0.191
108.300, 0.225
108.400, 0.213
108.500, 0.231
108.600, 0.209
108.700, 0.193
108.800, 0.175
108.900, 0.184
109.000, 0.176
109.100, 0.178
109.200, 0.171
109.300, 0.198
109.400, 0.177
109.500, 0.167
109.600, 0.161
109.700, 0.169
109.800, 0.186
109.900, 0.183
110.000, 0.171
110.100, 0.156
110.200, 0.163
110.300, 0.175
110.400, 0.164
110.500, 0.184
110.600, 0.175
110.700, 0.164
110.800, 0.194
110.900, 0.192
111.000, 0.190
111.100, 0.224
111.200, 0.212
111.300, 0.180
111.400, 0.198
111.500, 0.193
111.600, 0.182
111.700, 0.174
111.800, 0.186
111.900, 0.178
112.000, 0.182
112.100, 0.187
112.200, 0.187
112.300, 0.187
112.400, 0.177
112.500, 0.191
112.600, 0.194
112.700, 0.182
112.800, 0.186
112.900, 0.200
113.000, 0.213
113.100, 0.216
113.200, 0.186
113.300, 0.203
113.400, 0.206
113.500, 0.204
113.600, 0.201
113.700, 0.193
113.800, 0.179
113.900, 0.177
114.000, 0.182
114.100, 0.157
114.200, 0.184
114.300, 0.187
114.400, 0.191
114.500, 0.175
114.600, 0.199
114.700, 0.181
114.800, 0.174
114.900, 0.197
115.000, 0.186
115.100, 0.199
115.200, 0.204
115.300, 0.191
115.400, 0.174
115.500, 0.163
115.600, 0.189
115.700, 0.197
115.800, 0.203
115.900, 0.188
116.000, 0.195
116.100, 0.201
116.200, 0.187
116.300, 0.175
116.400, 0.179
116.500, 0.180
116.600, 0.175
116.700, 0.179
116.800, 0.179
116.900, 0.169
117.000, 0.185
117.100, 0.165
117.200, 0.139
117.300, 0.171
117.400, 0.168
117.500, 0.201
117.600, 0.162
117.700, 0.180
117.800, 0.183
117.900, 0.176
118.000, 0.187
118.100, 0.177
118.200, 0.184
118.300, 0.182
118.400, 0.224
118.500, 0.216
118.600, 0.190
118.700, 0.202
118.800, 0.193
118.900, 0.185
119.000, 0.189
119.100, 0.169
119.200, 0.156
119.300, 0.160
119.400, 0.157
119.500, 0.164
119.600, 0.166
119.700, 0.171
119.800, 0.160
119.900, 0.161
120.000, 0.150
120.100, 0.168
120.200, 0.165
120.300, 0.163
120.400, 0.173
120.500, 0.155
120.600, 0.187
120.700, 0.163
120.800, 0.205
120.900, 0.189
121.000, 0.185
121.100, 0.202
121.200, 0.204
121.300, 0.202
121.400, 0.184
121.500, 0.174
121.600, 0.189
121.700, 0.188
121.800, 0.178
121.900, 0.171
122.000, 0.181
122.100, 0.167
122.200, 0.167
122.300, 0.170
122.400, 0.156
122.500, 0.182
122.600, 0.162
122.700, 0.170
122.800, 0.169
122.900, 0.168
123.000, 0.166
123.100, 0.161
123.200, 0.177
123.300, 0.175
123.400, 0.159
123.500, 0.174
123.600, 0.161
123.700, 0.154
123.800, 0.155
123.900, 0.186
124.000, 0.169
124.100, 0.164
124.200, 0.150
124.300, 0.158
124.400, 0.160
124.500, 0.162
124.600, 0.159
124.700, 0.156
124.800, 0.168
124.900, 0.157
125.000, 0.172
125.100, 0.166
125.200, 0.153
125.300, 0.161
125.400, 0.170
125.500, 0.140
125.600, 0.162
125.700, 0.168
125.800, 0.174
125.900, 0.171
126.000, 0.185
126.100, 0.193
126.200, 0.183
126.300, 0.158
126.400, 0.156
126.500, 0.143
126.600, 0.147
126.700, 0.149
126.800, 0.182
126.900, 0.185
127.000, 0.152
127.100, 0.171
127.200, 0.161
127.300, 0.186
127.400, 0.165
127.500, 0.177
127.600, 0.179
127.700, 0.152
127.800, 0.163
127.900, 0.163
128.000, 0.162
128.100, 0.156
128.200, 0.142
128.300, 0.150
128.400, 0.168
128.500, 0.172
128.600, 0.160
128.700, 0.147
128.800, 0.178
128.900, 0.156
129.000, 0.169
129.100, 0.167
129.200, 0.152
129.300, 0.175
129.400, 0.165
129.500, 0.150
129.600, 0.166
129.700, 0.183
129.800, 0.132
129.900, 0.166
130.000, 0.157
130.100, 0.145
130.200, 0.163
130.300, 0.151
130.400, 0.148
130.500, 0.164
130.600, 0.186
130.700, 0.187
130.800, 0.169
130.900, 0.162
131.000, 0.179
131.100, 0.176
131.200, 0.176
131.300, 0.182
131.400, 0.178
131.500, 0.188
131.600, 0.161
131.700, 0.180
131.800, 0.160
131.900, 0.135
132.000, 0.159
132.100, 0.144
132.200, 0.151
132.300, 0.129
132.400, 0.136
132.500, 0.150
132.600, 0.141
132.700, 0.154
132.800, 0.136
132.900, 0.150
133.000, 0.161
133.100, 0.168
133.200, 0.146
133.300, 0.156
133.400, 0.151
133.500, 0.137
133.600, 0.149
133.700, 0.152
133.800, 0.156
133.900, 0.151
134.000, 0.169
134.100, 0.129
134.200, 0.147
134.300, 0.154
134.400, 0.142
134.500, 0.148
134.600, 0.169
134.700, 0.153
134.800, 0.156
134.900, 0.141
135.000, 0.132
135.100, 0.139
135.200, 0.133
135.300, 0.150
135.400, 0.151
135.500, 0.145
135.600, 0.152
135.700, 0.156
135.800, 0.158
135.900, 0.145
136.000, 0.129
136.100, 0.123
136.200, 0.134
136.300, 0.124
136.400, 0.140
136.500, 0.160
136.600, 0.160
136.700, 0.174
136.800, 0.153
136.900, 0.167
137.000, 0.159
137.100, 0.157
137.200, 0.161
137.300, 0.142
137.400, 0.135
137.500, 0.150
137.600, 0.152
137.700, 0.161
137.800, 0.169
137.900, 0.149
138.000, 0.152
138.100, 0.157
138.200, 0.178
138.300, 0.158
138.400, 0.173
138.500, 0.167
138.600, 0.182
138.700, 0.190
138.800, 0.171
138.900, 0.149
139.000, 0.151
139.100, 0.171
139.200, 0.170
139.300, 0.155
139.400, 0.172
139.500, 0.164
139.600, 0.182
139.700, 0.157
139.800, 0.174
139.900, 0.145
140.000, 0.175
140.100, 0.132
140.200, 0.159
140.300, 0.155
140.400, 0.166
