Time (ps), RMSD (nm)
0.000, 0.001
0.100, 0.193
0.200, 0.167
0.300, 0.185
0.400, 0.175
0.500, 0.178
0.600, 0.175
0.700, 0.182
0.800, 0.175
0.900, 0.188
1.000, 0.175
1.100, 0.170
1.200, 0.184
1.300, 0.182
1.400, 0.191
1.500, 0.174
1.600, 0.172
1.700, 0.168
1.800, 0.166
1.900, 0.186
2.000, 0.180
2.100, 0.166
2.200, 0.177
2.300, 0.172
2.400, 0.170
2.500, 0.162
2.600, 0.174
2.700, 0.184
2.800, 0.198
2.900, 0.174
3.000, 0.182
3.100, 0.184
3.200, 0.181
3.300, 0.178
3.400, 0.194
3.500, 0.189
3.600, 0.189
3.700, 0.173
3.800, 0.201
3.900, 0.185
4.000, 0.170
4.100, 0.173
4.200, 0.172
4.300, 0.169
4.400, 0.175
4.500, 0.173
4.600, 0.193
4.700, 0.186
4.800, 0.177
4.900, 0.189
5.000, 0.193
5.100, 0.189
5.200, 0.181
5.300, 0.170
5.400, 0.183
5.500, 0.170
5.600, 0.174
5.700, 0.173
5.800, 0.179
5.900, 0.195
6.000, 0.173
6.100, 0.187
6.200, 0.163
6.300, 0.167
6.400, 0.181
6.500, 0.182
6.600, 0.164
6.700, 0.159
6.800, 0.158
6.900, 0.178
7.000, 0.176
7.100, 0.163
7.200, 0.161
7.300, 0.164
7.400, 0.183
7.500, 0.180
7.600, 0.175
7.700, 0.176
7.800, 0.174
7.900, 0.167
8.000, 0.185
8.100, 0.178
8.200, 0.181
8.300, 0.189
8.400, 0.187
8.500, 0.182
8.600, 0.181
8.700, 0.175
8.800, 0.169
8.900, 0.193
9.000, 0.185
9.100, 0.162
9.200, 0.162
9.300, 0.174
9.400, 0.163
9.500, 0.158
9.600, 0.158
9.700, 0.163
9.800, 0.155
9.900, 0.150
10.000, 0.157
10.100, 0.159
10.200, 0.166
10.300, 0.186
10.400, 0.181
10.500, 0.167
10.600, 0.160
10.700, 0.172
10.800, 0.150
10.900, 0.164
11.000, 0.177
11.100, 0.176
11.200, 0.179
11.300, 0.204
11.400, 0.180
11.500, 0.185
11.600, 0.189
11.700, 0.207
11.800, 0.191
11.900, 0.210
12.000, 0.188
12.100, 0.196
12.200, 0.235
12.300, 0.223
12.400, 0.214
12.500, 0.222
12.600, 0.234
12.700, 0.242
12.800, 0.255
12.900, 0.233
13.000, 0.225
13.100, 0.240
13.200, 0.222
13.300, 0.233
13.400, 0.256
13.500, 0.228
13.600, 0.242
13.700, 0.244
13.800, 0.235
13.900, 0.231
14.000, 0.247
14.100, 0.250
14.200, 0.275
14.300, 0.233
14.400, 0.246
14.500, 0.213
14.600, 0.217
14.700, 0.218
14.800, 0.230
14.900, 0.213
15.000, 0.215
15.100, 0.222
15.200, 0.220
15.300, 0.210
15.400, 0.196
15.500, 0.198
15.600, 0.209
15.700, 0.201
15.800, 0.191
15.900, 0.204
16.000, 0.211
16.100, 0.199
16.200, 0.210
16.300, 0.209
16.400, 0.213
16.500, 0.217
16.600, 0.213
16.700, 0.225
16.800, 0.235
16.900, 0.236
17.000, 0.228
17.100, 0.251
17.200, 0.240
17.300, 0.260
17.400, 0.244
17.500, 0.261
17.600, 0.223
17.700, 0.208
17.800, 0.237
17.900, 0.236
18.000, 0.229
18.100, 0.225
18.200, 0.223
18.300, 0.226
18.400, 0.221
18.500, 0.257
18.600, 0.259
18.700, 0.279
18.800, 0.269
18.900, 0.286
19.000, 0.290
19.100, 0.281
19.200, 0.283
19.300, 0.244
19.400, 0.241
19.500, 0.254
19.600, 0.248
19.700, 0.248
19.800, 0.251
19.900, 0.249
20.000, 0.267
20.100, 0.252
20.200, 0.267
20.300, 0.271
20.400, 0.265
20.500, 0.267
20.600, 0.242
20.700, 0.245
20.800, 0.250
20.900, 0.263
21.000, 0.248
21.100, 0.228
21.200, 0.243
21.300, 0.227
21.400, 0.229
21.500, 0.216
21.600, 0.225
21.700, 0.229
21.800, 0.212
21.900, 0.240
22.000, 0.227
22.100, 0.234
22.200, 0.260
22.300, 0.281
22.400, 0.276
22.500, 0.259
22.600, 0.244
22.700, 0.270
22.800, 0.285
22.900, 0.288
23.000, 0.298
23.100, 0.289
23.200, 0.288
23.300, 0.263
23.400, 0.255
23.500, 0.247
23.600, 0.260
23.700, 0.245
23.800, 0.246
23.900, 0.241
24.000, 0.225
24.100, 0.260
24.200, 0.261
24.300, 0.247
24.400, 0.245
24.500, 0.244
24.600, 0.259
24.700, 0.254
24.800, 0.249
24.900, 0.265
25.000, 0.246
25.100, 0.250
25.200, 0.229
25.300, 0.223
25.400, 0.251
25.500, 0.229
25.600, 0.229
25.700, 0.228
25.800, 0.230
25.900, 0.256
26.000, 0.273
26.100, 0.260
26.200, 0.251
26.300, 0.252
26.400, 0.264
26.500, 0.252
26.600, 0.261
26.700, 0.263
26.800, 0.290
26.900, 0.274
27.000, 0.258
27.100, 0.262
27.200, 0.239
27.300, 0.253
27.400, 0.272
27.500, 0.259
27.600, 0.259
27.700, 0.274
27.800, 0.247
27.900, 0.259
28.000, 0.296
28.100, 0.235
28.200, 0.243
28.300, 0.254
28.400, 0.254
28.500, 0.224
28.600, 0.249
28.700, 0.269
28.800, 0.226
28.900, 0.230
29.000, 0.231
29.100, 0.237
29.200, 0.254
29.300, 0.239
29.400, 0.251
29.500, 0.248
29.600, 0.247
29.700, 0.246
29.800, 0.262
29.900, 0.254
30.000, 0.261
30.100, 0.247
30.200, 0.245
30.300, 0.248
30.400, 0.243
30.500, 0.244
30.600, 0.233
30.700, 0.244
30.800, 0.237
30.900, 0.240
31.000, 0.235
31.100, 0.251
31.200, 0.233
31.300, 0.237
31.400, 0.235
31.500, 0.244
31.600, 0.241
31.700, 0.235
31.800, 0.229
31.900, 0.220
32.000, 0.225
32.100, 0.224
32.200, 0.232
32.300, 0.253
32.400, 0.256
32.500, 0.244
32.600, 0.239
32.700, 0.242
32.800, 0.248
32.900, 0.267
33.000, 0.262
33.100, 0.268
33.200, 0.282
33.300, 0.266
33.400, 0.264
33.500, 0.238
33.600, 0.280
33.700, 0.268
33.800, 0.234
33.900, 0.235
34.000, 0.268
34.100, 0.257
34.200, 0.267
34.300, 0.282
34.400, 0.287
34.500, 0.281
34.600, 0.261
34.700, 0.248
34.800, 0.275
34.900, 0.241
35.000, 0.272
35.100, 0.275
35.200, 0.271
35.300, 0.293
35.400, 0.283
35.500, 0.256
35.600, 0.258
35.700, 0.269
35.800, 0.267
35.900, 0.265
36.000, 0.250
36.100, 0.242
36.200, 0.258
36.300, 0.258
36.400, 0.248
36.500, 0.248
36.600, 0.241
36.700, 0.263
36.800, 0.252
36.900, 0.224
37.000, 0.224
37.100, 0.242
37.200, 0.240
37.300, 0.253
37.400, 0.252
37.500, 0.231
37.600, 0.247
37.700, 0.255
37.800, 0.270
37.900, 0.275
38.000, 0.257
38.100, 0.248
38.200, 0.254
38.300, 0.246
38.400, 0.229
38.500, 0.244
38.600, 0.263
38.700, 0.256
38.800, 0.245
38.900, 0.244
39.000, 0.238
39.100, 0.253
39.200, 0.242
39.300, 0.263
39.400, 0.238
39.500, 0.228
39.600, 0.232
39.700, 0.215
39.800, 0.239
39.900, 0.235
40.000, 0.231
40.100, 0.259
40.200, 0.241
40.300, 0.257
40.400, 0.219
40.500, 0.233
40.600, 0.223
40.700, 0.241
40.800, 0.237
40.900, 0.230
41.000, 0.251
41.100, 0.236
41.200, 0.220
41.300, 0.221
41.400, 0.220
41.500, 0.227
41.600, 0.246
41.700, 0.236
41.800, 0.229
41.900, 0.268
42.000, 0.273
42.100, 0.273
42.200, 0.253
42.300, 0.247
42.400, 0.274
42.500, 0.250
42.600, 0.252
42.700, 0.250
42.800, 0.255
42.900, 0.255
43.000, 0.253
43.100, 0.265
43.200, 0.286
43.300, 0.256
43.400, 0.277
43.500, 0.269
43.600, 0.263
43.700, 0.275
43.800, 0.293
43.900, 0.293
44.000, 0.295
44.100, 0.274
44.200, 0.253
44.300, 0.249
44.400, 0.263
44.500, 0.235
44.600, 0.232
44.700, 0.231
44.800, 0.240
44.900, 0.232
45.000, 0.252
45.100, 0.272
45.200, 0.272
45.300, 0.256
45.400, 0.275
45.500, 0.237
45.600, 0.234
45.700, 0.232
45.800, 0.243
45.900, 0.260
46.000, 0.250
46.100, 0.225
46.200, 0.220
46.300, 0.221
46.400, 0.250
46.500, 0.240
46.600, 0.223
46.700, 0.245
46.800, 0.255
46.900, 0.223
47.000, 0.261
47.100, 0.248
47.200, 0.259
47.300, 0.246
47.400, 0.278
47.500, 0.260
47.600, 0.239
47.700, 0.283
47.800, 0.283
47.900, 0.241
48.000, 0.245
48.100, 0.238
48.200, 0.257
48.300, 0.253
48.400, 0.267
48.500, 0.290
48.600, 0.280
48.700, 0.280
48.800, 0.259
48.900, 0.283
49.000, 0.283
49.100, 0.247
49.200, 0.258
49.300, 0.272
49.400, 0.258
49.500, 0.277
49.600, 0.279
49.700, 0.296
49.800, 0.245
49.900, 0.270
50.000, 0.240
50.100, 0.250
50.200, 0.221
50.300, 0.224
50.400, 0.231
50.500, 0.230
50.600, 0.258
50.700, 0.274
50.800, 0.248
50.900, 0.265
51.000, 0.256
51.100, 0.239
51.200, 0.242
51.300, 0.226
51.400, 0.254
51.500, 0.270
51.600, 0.283
51.700, 0.245
51.800, 0.265
51.900, 0.269
52.000, 0.297
52.100, 0.291
52.200, 0.260
52.300, 0.295
52.400, 0.302
52.500, 0.273
52.600, 0.259
52.700, 0.263
52.800, 0.273
52.900, 0.270
53.000, 0.294
53.100, 0.278
53.200, 0.266
53.300, 0.285
53.400, 0.272
53.500, 0.255
53.600, 0.231
53.700, 0.269
53.800, 0.256
53.900, 0.252
54.000, 0.216
54.100, 0.243
54.200, 0.255
54.300, 0.248
54.400, 0.262
54.500, 0.274
54.600, 0.275
54.700, 0.275
54.800, 0.294
54.900, 0.300
55.000, 0.274
55.100, 0.265
55.200, 0.294
55.300, 0.251
55.400, 0.279
55.500, 0.274
55.600, 0.267
55.700, 0.260
55.800, 0.272
55.900, 0.287
56.000, 0.282
56.100, 0.273
56.200, 0.269
56.300, 0.249
56.400, 0.296
56.500, 0.278
56.600, 0.276
56.700, 0.274
56.800, 0.271
56.900, 0.262
57.000, 0.258
57.100, 0.263
57.200, 0.277
57.300, 0.300
57.400, 0.270
57.500, 0.281
57.600, 0.291
57.700, 0.302
57.800, 0.289
57.900, 0.299
58.000, 0.282
58.100, 0.279
58.200, 0.294
58.300, 0.274
58.400, 0.276
58.500, 0.284
58.600, 0.286
58.700, 0.308
58.800, 0.303
58.900, 0.327
59.000, 0.312
59.100, 0.300
59.200, 0.308
59.300, 0.296
59.400, 0.315
59.500, 0.293
59.600, 0.297
59.700, 0.294
59.800, 0.283
59.900, 0.287
60.000, 0.319
60.100, 0.338
60.200, 0.308
60.300, 0.318
60.400, 0.333
60.500, 0.300
60.600, 0.288
60.700, 0.313
60.800, 0.295
60.900, 0.303
61.000, 0.333
61.100, 0.316
61.200, 0.292
61.300, 0.278
61.400, 0.275
61.500, 0.271
61.600, 0.263
61.700, 0.282
61.800, 0.277
61.900, 0.280
62.000, 0.277
62.100, 0.277
62.200, 0.279
62.300, 0.292
62.400, 0.282
62.500, 0.304
62.600, 0.305
62.700, 0.299
62.800, 0.284
62.900, 0.311
63.000, 0.309
63.100, 0.292
63.200, 0.285
63.300, 0.254
63.400, 0.274
63.500, 0.269
63.600, 0.293
63.700, 0.290
63.800, 0.295
63.900, 0.296
64.000, 0.298
64.100, 0.325
64.200, 0.322
64.300, 0.339
64.400, 0.286
64.500, 0.300
64.600, 0.284
64.700, 0.294
64.800, 0.281
64.900, 0.301
65.000, 0.274
65.100, 0.326
65.200, 0.306
65.300, 0.291
65.400, 0.310
65.500, 0.326
65.600, 0.313
65.700, 0.312
65.800, 0.336
65.900, 0.341
66.000, 0.339
66.100, 0.349
66.200, 0.342
66.300, 0.319
66.400, 0.327
66.500, 0.346
66.600, 0.342
66.700, 0.366
66.800, 0.341
66.900, 0.310
67.000, 0.291
67.100, 0.307
67.200, 0.327
67.300, 0.297
67.400, 0.272
67.500, 0.312
67.600, 0.299
67.700, 0.261
67.800, 0.265
67.900, 0.275
68.000, 0.302
68.100, 0.317
68.200, 0.284
68.300, 0.291
68.400, 0.274
68.500, 0.303
68.600, 0.296
68.700, 0.300
68.800, 0.279
68.900, 0.288
69.000, 0.293
69.100, 0.284
69.200, 0.310
69.300, 0.329
69.400, 0.311
69.500, 0.256
69.600, 0.270
69.700, 0.254
69.800, 0.273
69.900, 0.307
70.000, 0.288
70.100, 0.291
70.200, 0.282
70.300, 0.310
70.400, 0.325
70.500, 0.345
70.600, 0.340
70.700, 0.299
70.800, 0.300
70.900, 0.290
71.000, 0.293
71.100, 0.278
71.200, 0.287
71.300, 0.309
71.400, 0.307
71.500, 0.304
71.600, 0.308
71.700, 0.308
71.800, 0.280
71.900, 0.298
72.000, 0.291
72.100, 0.286
72.200, 0.298
72.300, 0.333
72.400, 0.345
72.500, 0.327
72.600, 0.320
72.700, 0.324
72.800, 0.313
72.900, 0.314
73.000, 0.299
73.100, 0.301
73.200, 0.302
73.300, 0.295
73.400, 0.303
73.500, 0.302
73.600, 0.294
73.700, 0.316
73.800, 0.287
73.900, 0.314
74.000, 0.315
74.100, 0.284
74.200, 0.300
74.300, 0.319
74.400, 0.296
74.500, 0.274
74.600, 0.286
74.700, 0.284
74.800, 0.283
74.900, 0.281
75.000, 0.293
75.100, 0.267
75.200, 0.294
75.300, 0.302
75.400, 0.309
75.500, 0.297
75.600, 0.314
75.700, 0.295
75.800, 0.284
75.900, 0.288
76.000, 0.306
76.100, 0.292
76.200, 0.281
76.300, 0.302
76.400, 0.285
76.500, 0.267
76.600, 0.272
76.700, 0.250
76.800, 0.278
76.900, 0.291
77.000, 0.312
77.100, 0.310
77.200, 0.287
77.300, 0.269
77.400, 0.284
77.500, 0.276
77.600, 0.267
77.700, 0.279
77.800, 0.265
77.900, 0.246
78.000, 0.232
78.100, 0.237
78.200, 0.275
78.300, 0.279
78.400, 0.241
78.500, 0.262
78.600, 0.269
78.700, 0.287
78.800, 0.273
78.900, 0.286
79.000, 0.272
79.100, 0.292
79.200, 0.280
79.300, 0.293
79.400, 0.299
79.500, 0.290
79.600, 0.290
79.700, 0.305
79.800, 0.289
79.900, 0.286
80.000, 0.287
80.100, 0.294
80.200, 0.291
80.300, 0.285
80.400, 0.297
80.500, 0.301
80.600, 0.302
80.700, 0.304
80.800, 0.310
80.900, 0.310
81.000, 0.287
81.100, 0.279
81.200, 0.287
81.300, 0.274
81.400, 0.285
81.500, 0.297
81.600, 0.273
81.700, 0.286
81.800, 0.271
81.900, 0.286
82.000, 0.284
82.100, 0.298
82.200, 0.296
82.300, 0.264
82.400, 0.230
82.500, 0.273
82.600, 0.244
82.700, 0.247
82.800, 0.251
82.900, 0.223
83.000, 0.252
83.100, 0.248
83.200, 0.256
83.300, 0.234
83.400, 0.272
83.500, 0.270
83.600, 0.263
83.700, 0.249
83.800, 0.268
83.900, 0.272
84.000, 0.257
84.100, 0.248
84.200, 0.260
84.300, 0.257
84.400, 0.265
84.500, 0.268
84.600, 0.256
84.700, 0.266
84.800, 0.252
84.900, 0.247
85.000, 0.252
85.100, 0.256
85.200, 0.256
85.300, 0.276
85.400, 0.257
85.500, 0.243
85.600, 0.252
85.700, 0.273
85.800, 0.258
85.900, 0.292
86.000, 0.291
86.100, 0.311
86.200, 0.306
86.300, 0.290
86.400, 0.275
86.500, 0.256
86.600, 0.280
86.700, 0.271
86.800, 0.303
86.900, 0.284
87.000, 0.304
87.100, 0.320
87.200, 0.334
87.300, 0.328
87.400, 0.299
87.500, 0.309
87.600, 0.334
87.700, 0.285
87.800, 0.298
87.900, 0.292
88.000, 0.291
88.100, 0.286
88.200, 0.306
88.300, 0.306
88.400, 0.296
88.500, 0.282
88.600, 0.293
88.700, 0.298
88.800, 0.285
88.900, 0.292
89.000, 0.318
89.100, 0.311
89.200, 0.294
89.300, 0.283
89.400, 0.285
89.500, 0.313
89.600, 0.331
89.700, 0.290
89.800, 0.291
89.900, 0.292
90.000, 0.296
90.100, 0.291
90.200, 0.260
90.300, 0.276
90.400, 0.281
90.500, 0.281
90.600, 0.307
90.700, 0.284
90.800, 0.302
90.900, 0.303
91.000, 0.294
91.100, 0.308
91.200, 0.305
91.300, 0.303
91.400, 0.284
91.500, 0.282
91.600, 0.291
91.700, 0.274
91.800, 0.284
91.900, 0.293
92.000, 0.284
92.100, 0.296
92.200, 0.305
92.300, 0.306
92.400, 0.306
92.500, 0.301
92.600, 0.307
92.700, 0.276
92.800, 0.298
92.900, 0.285
93.000, 0.275
93.100, 0.260
93.200, 0.249
93.300, 0.258
93.400, 0.267
93.500, 0.305
93.600, 0.273
93.700, 0.288
93.800, 0.292
93.900, 0.281
94.000, 0.304
94.100, 0.305
94.200, 0.286
94.300, 0.305
94.400, 0.287
94.500, 0.297
94.600, 0.302
94.700, 0.272
94.800, 0.255
94.900, 0.252
95.000, 0.283
95.100, 0.286
95.200, 0.294
95.300, 0.290
95.400, 0.268
95.500, 0.299
95.600, 0.321
95.700, 0.291
95.800, 0.294
95.900, 0.289
96.000, 0.285
96.100, 0.304
96.200, 0.311
96.300, 0.313
96.400, 0.299
96.500, 0.329
96.600, 0.297
96.700, 0.307
96.800, 0.274
96.900, 0.258
97.000, 0.294
97.100, 0.277
97.200, 0.276
97.300, 0.280
97.400, 0.281
97.500, 0.315
97.600, 0.290
97.700, 0.315
97.800, 0.290
97.900, 0.313
98.000, 0.258
98.100, 0.269
98.200, 0.268
98.300, 0.321
98.400, 0.331
98.500, 0.300
98.600, 0.330
98.700, 0.327
98.800, 0.297
98.900, 0.306
99.000, 0.316
99.100, 0.305
99.200, 0.320
99.300, 0.301
99.400, 0.328
99.500, 0.326
99.600, 0.313
99.700, 0.299
99.800, 0.320
99.900, 0.317
100.000, 0.280
100.100, 0.301
100.200, 0.301
100.300, 0.329
100.400, 0.324
100.500, 0.322
100.600, 0.307
100.700, 0.292
100.800, 0.317
100.900, 0.293
101.000, 0.285
101.100, 0.286
101.200, 0.268
101.300, 0.289
101.400, 0.310
101.500, 0.294
101.600, 0.263
101.700, 0.258
101.800, 0.241
101.900, 0.219
102.000, 0.222
102.100, 0.218
102.200, 0.246
102.300, 0.228
102.400, 0.233
102.500, 0.234
102.600, 0.249
102.700, 0.228
102.800, 0.231
102.900, 0.243
103.000, 0.245
103.100, 0.225
103.200, 0.241
103.300, 0.219
103.400, 0.235
103.500, 0.259
103.600, 0.261
103.700, 0.260
103.800, 0.244
103.900, 0.245
104.000, 0.243
104.100, 0.255
104.200, 0.249
104.300, 0.257
104.400, 0.244
104.500, 0.258
104.600, 0.250
104.700, 0.252
104.800, 0.227
104.900, 0.238
105.000, 0.230
105.100, 0.214
105.200, 0.230
105.300, 0.218
105.400, 0.225
105.500, 0.235
105.600, 0.256
105.700, 0.268
105.800, 0.269
105.900, 0.294
106.000, 0.280
106.100, 0.267
106.200, 0.280
106.300, 0.255
106.400, 0.265
106.500, 0.273
106.600, 0.290
106.700, 0.289
106.800, 0.272
106.900, 0.265
107.000, 0.284
107.100, 0.272
107.200, 0.296
107.300, 0.298
107.400, 0.264
107.500, 0.273
107.600, 0.325
107.700, 0.266
107.800, 0.237
107.900, 0.236
108.000, 0.251
108.100, 0.275
108.200, 0.252
108.300, 0.268
108.400, 0.297
108.500, 0.265
108.600, 0.266
108.700, 0.303
108.800, 0.255
108.900, 0.274
109.000, 0.248
109.100, 0.261
109.200, 0.250
109.300, 0.276
109.400, 0.276
109.500, 0.269
109.600, 0.240
109.700, 0.247
109.800, 0.268
109.900, 0.273
110.000, 0.265
110.100, 0.254
110.200, 0.261
110.300, 0.232
110.400, 0.236
110.500, 0.222
110.600, 0.231
110.700, 0.231
110.800, 0.225
110.900, 0.228
111.000, 0.234
111.100, 0.250
111.200, 0.258
111.300, 0.283
111.400, 0.270
111.500, 0.293
111.600, 0.304
111.700, 0.261
111.800, 0.248
111.900, 0.276
112.000, 0.270
112.100, 0.281
112.200, 0.289
112.300, 0.302
112.400, 0.308
112.500, 0.291
112.600, 0.281
112.700, 0.307
112.800, 0.284
112.900, 0.279
113.000, 0.246
113.100, 0.261
113.200, 0.268
113.300, 0.296
113.400, 0.303
113.500, 0.274
113.600, 0.262
113.700, 0.281
113.800, 0.293
113.900, 0.298
114.000, 0.300
114.100, 0.304
114.200, 0.270
114.300, 0.270
114.400, 0.269
114.500, 0.305
114.600, 0.269
114.700, 0.260
114.800, 0.279
114.900, 0.262
115.000, 0.278
115.100, 0.248
115.200, 0.236
115.300, 0.263
115.400, 0.262
115.500, 0.273
115.600, 0.266
115.700, 0.260
115.800, 0.261
115.900, 0.259
116.000, 0.230
116.100, 0.248
116.200, 0.238
116.300, 0.230
116.400, 0.211
116.500, 0.252
116.600, 0.244
116.700, 0.244
116.800, 0.256
116.900, 0.240
117.000, 0.247
117.100, 0.239
117.200, 0.244
117.300, 0.228
117.400, 0.208
117.500, 0.201
117.600, 0.242
117.700, 0.231
117.800, 0.221
117.900, 0.226
118.000, 0.236
118.100, 0.236
118.200, 0.226
118.300, 0.227
118.400, 0.229
118.500, 0.246
118.600, 0.241
118.700, 0.228
118.800, 0.244
118.900, 0.239
119.000, 0.240
119.100, 0.235
119.200, 0.227
119.300, 0.224
119.400, 0.229
119.500, 0.210
119.600, 0.230
119.700, 0.243
119.800, 0.217
119.900, 0.216
120.000, 0.196
120.100, 0.226
120.200, 0.215
120.300, 0.205
120.400, 0.224
120.500, 0.238
120.600, 0.244
120.700, 0.238
120.800, 0.269
120.900, 0.287
121.000, 0.258
121.100, 0.258
121.200, 0.268
121.300, 0.263
121.400, 0.290
121.500, 0.267
121.600, 0.252
121.700, 0.244
121.800, 0.255
121.900, 0.233
122.000, 0.223
122.100, 0.240
122.200, 0.247
122.300, 0.231
122.400, 0.219
122.500, 0.222
122.600, 0.219
122.700, 0.222
122.800, 0.243
122.900, 0.263
123.000, 0.305
123.100, 0.250
123.200, 0.245
123.300, 0.243
123.400, 0.218
123.500, 0.236
123.600, 0.264
123.700, 0.248
123.800, 0.251
123.900, 0.257
124.000, 0.237
124.100, 0.267
124.200, 0.278
124.300, 0.255
124.400, 0.239
124.500, 0.269
124.600, 0.268
124.700, 0.261
124.800, 0.296
124.900, 0.280
125.000, 0.278
125.100, 0.238
125.200, 0.265
125.300, 0.237
125.400, 0.236
125.500, 0.237
125.600, 0.240
125.700, 0.246
125.800, 0.240
125.900, 0.264
126.000, 0.257
126.100, 0.284
126.200, 0.273
126.300, 0.246
126.400, 0.254
126.500, 0.288
126.600, 0.274
126.700, 0.246
126.800, 0.228
126.900, 0.263
127.000, 0.245
127.100, 0.209
127.200, 0.216
127.300, 0.215
127.400, 0.245
127.500, 0.225
127.600, 0.226
127.700, 0.218
127.800, 0.217
127.900, 0.221
128.000, 0.219
128.100, 0.194
128.200, 0.228
128.300, 0.195
128.400, 0.206
128.500, 0.164
128.600, 0.191
128.700, 0.209
128.800, 0.191
128.900, 0.199
129.000, 0.187
129.100, 0.212
129.200, 0.209
129.300, 0.266
129.400, 0.264
129.500, 0.285
129.600, 0.241
129.700, 0.226
129.800, 0.223
129.900, 0.227
130.000, 0.221
130.100, 0.223
130.200, 0.223
130.300, 0.194
130.400, 0.205
130.500, 0.208
130.600, 0.214
130.700, 0.234
130.800, 0.200
130.900, 0.200
131.000, 0.238
131.100, 0.229
131.200, 0.215
131.300, 0.224
131.400, 0.188
131.500, 0.189
131.600, 0.179
131.700, 0.187
131.800, 0.177
131.900, 0.193
132.000, 0.207
132.100, 0.210
132.200, 0.193
132.300, 0.197
132.400, 0.213
132.500, 0.219
132.600, 0.205
132.700, 0.213
132.800, 0.211
132.900, 0.198
133.000, 0.198
133.100, 0.219
133.200, 0.208
133.300, 0.210
133.400, 0.209
133.500, 0.167
133.600, 0.182
133.700, 0.192
133.800, 0.208
133.900, 0.230
134.000, 0.207
134.100, 0.204
134.200, 0.212
134.300, 0.187
134.400, 0.211
134.500, 0.225
134.600, 0.200
134.700, 0.220
134.800, 0.226
134.900, 0.209
135.000, 0.208
135.100, 0.226
135.200, 0.225
135.300, 0.251
135.400, 0.216
135.500, 0.270
135.600, 0.234
135.700, 0.217
135.800, 0.223
135.900, 0.209
136.000, 0.203
136.100, 0.200
136.200, 0.207
136.300, 0.220
136.400, 0.200
136.500, 0.198
136.600, 0.216
136.700, 0.194
136.800, 0.208
136.900, 0.213
137.000, 0.213
137.100, 0.204
137.200, 0.229
137.300, 0.213
137.400, 0.218
137.500, 0.197
137.600, 0.191
137.700, 0.212
137.800, 0.239
137.900, 0.198
138.000, 0.222
138.100, 0.256
138.200, 0.243
138.300, 0.211
138.400, 0.224
138.500, 0.234
138.600, 0.209
138.700, 0.230
138.800, 0.213
138.900, 0.219
139.000, 0.201
139.100, 0.199
139.200, 0.221
139.300, 0.214
139.400, 0.197
139.500, 0.200
139.600, 0.212
139.700, 0.210
139.800, 0.225
139.900, 0.215
140.000, 0.210
140.100, 0.225
140.200, 0.183
140.300, 0.190
140.400, 0.215
