Time (ps), RMSD (nm)
0.000, 0.001
0.100, 0.117
0.200, 0.120
0.300, 0.121
0.400, 0.119
0.500, 0.122
0.600, 0.113
0.700, 0.110
0.800, 0.111
0.900, 0.116
1.000, 0.112
1.100, 0.111
1.200, 0.122
1.300, 0.114
1.400, 0.115
1.500, 0.119
1.600, 0.115
1.700, 0.113
1.800, 0.119
1.900, 0.113
2.000, 0.121
2.100, 0.122
2.200, 0.118
2.300, 0.123
2.400, 0.116
2.500, 0.124
2.600, 0.120
2.700, 0.126
2.800, 0.132
2.900, 0.128
3.000, 0.126
3.100, 0.122
3.200, 0.125
3.300, 0.123
3.400, 0.122
3.500, 0.125
3.600, 0.127
3.700, 0.131
3.800, 0.127
3.900, 0.130
4.000, 0.118
4.100, 0.119
4.200, 0.118
4.300, 0.120
4.400, 0.108
4.500, 0.118
4.600, 0.120
4.700, 0.120
4.800, 0.117
4.900, 0.106
5.000, 0.115
5.100, 0.112
5.200, 0.118
5.300, 0.122
5.400, 0.118
5.500, 0.114
5.600, 0.124
5.700, 0.121
5.800, 0.117
5.900, 0.120
6.000, 0.116
6.100, 0.122
6.200, 0.121
6.300, 0.126
6.400, 0.124
6.500, 0.127
6.600, 0.123
6.700, 0.115
6.800, 0.127
6.900, 0.116
7.000, 0.107
7.100, 0.110
7.200, 0.121
7.300, 0.108
7.400, 0.121
7.500, 0.112
7.600, 0.117
7.700, 0.118
7.800, 0.120
7.900, 0.133
8.000, 0.115
8.100, 0.115
8.200, 0.117
8.300, 0.113
8.400, 0.112
8.500, 0.110
8.600, 0.112
8.700, 0.107
8.800, 0.111
8.900, 0.111
9.000, 0.115
9.100, 0.120
9.200, 0.130
9.300, 0.121
9.400, 0.127
9.500, 0.115
9.600, 0.126
9.700, 0.113
9.800, 0.112
9.900, 0.106
10.000, 0.119
10.100, 0.119
10.200, 0.104
10.300, 0.103
10.400, 0.106
10.500, 0.115
10.600, 0.106
10.700, 0.105
10.800, 0.110
10.900, 0.110
11.000, 0.113
11.100, 0.107
11.200, 0.108
11.300, 0.106
11.400, 0.103
11.500, 0.114
11.600, 0.113
11.700, 0.114
11.800, 0.112
11.900, 0.107
12.000, 0.107
12.100, 0.107
12.200, 0.108
12.300, 0.115
12.400, 0.108
12.500, 0.114
12.600, 0.113
12.700, 0.115
12.800, 0.115
12.900, 0.105
13.000, 0.108
13.100, 0.120
13.200, 0.105
13.300, 0.111
13.400, 0.105
13.500, 0.108
13.600, 0.113
13.700, 0.113
13.800, 0.108
13.900, 0.109
14.000, 0.115
14.100, 0.117
14.200, 0.111
14.300, 0.107
14.400, 0.113
14.500, 0.113
14.600, 0.114
14.700, 0.112
14.800, 0.110
14.900, 0.117
15.000, 0.118
15.100, 0.116
15.200, 0.115
15.300, 0.117
15.400, 0.121
15.500, 0.118
15.600, 0.114
15.700, 0.116
15.800, 0.112
15.900, 0.120
16.000, 0.117
16.100, 0.115
16.200, 0.121
16.300, 0.126
16.400, 0.121
16.500, 0.116
16.600, 0.119
16.700, 0.122
16.800, 0.117
16.900, 0.119
17.000, 0.114
17.100, 0.115
17.200, 0.113
17.300, 0.118
17.400, 0.113
17.500, 0.117
17.600, 0.119
17.700, 0.119
17.800, 0.120
17.900, 0.124
18.000, 0.121
18.100, 0.133
18.200, 0.117
18.300, 0.122
18.400, 0.124
18.500, 0.128
18.600, 0.127
18.700, 0.121
18.800, 0.122
18.900, 0.119
19.000, 0.117
19.100, 0.126
19.200, 0.132
19.300, 0.121
19.400, 0.121
19.500, 0.118
19.600, 0.121
19.700, 0.125
19.800, 0.124
19.900, 0.121
20.000, 0.118
20.100, 0.126
20.200, 0.123
20.300, 0.116
20.400, 0.120
20.500, 0.121
20.600, 0.116
20.700, 0.110
20.800, 0.126
20.900, 0.125
21.000, 0.119
21.100, 0.118
21.200, 0.118
21.300, 0.117
21.400, 0.122
21.500, 0.122
21.600, 0.121
21.700, 0.121
21.800, 0.110
21.900, 0.117
22.000, 0.117
22.100, 0.122
22.200, 0.123
22.300, 0.118
22.400, 0.124
22.500, 0.134
22.600, 0.131
22.700, 0.131
22.800, 0.131
22.900, 0.128
23.000, 0.130
23.100, 0.134
23.200, 0.133
23.300, 0.136
23.400, 0.130
23.500, 0.140
23.600, 0.132
23.700, 0.131
23.800, 0.140
23.900, 0.125
24.000, 0.128
24.100, 0.125
24.200, 0.128
24.300, 0.128
24.400, 0.135
24.500, 0.140
24.600, 0.135
24.700, 0.132
24.800, 0.135
24.900, 0.137
25.000, 0.147
25.100, 0.135
25.200, 0.140
25.300, 0.142
25.400, 0.128
25.500, 0.125
25.600, 0.135
25.700, 0.129
25.800, 0.130
25.900, 0.126
26.000, 0.123
26.100, 0.118
26.200, 0.120
26.300, 0.112
26.400, 0.113
26.500, 0.119
26.600, 0.125
26.700, 0.115
26.800, 0.124
26.900, 0.118
27.000, 0.125
27.100, 0.142
27.200, 0.121
27.300, 0.120
27.400, 0.120
27.500, 0.114
27.600, 0.119
27.700, 0.118
27.800, 0.112
27.900, 0.110
28.000, 0.108
28.100, 0.115
28.200, 0.118
28.300, 0.113
28.400, 0.116
28.500, 0.111
28.600, 0.108
28.700, 0.114
28.800, 0.109
28.900, 0.112
29.000, 0.116
29.100, 0.123
29.200, 0.117
29.300, 0.117
29.400, 0.125
29.500, 0.126
29.600, 0.132
29.700, 0.123
29.800, 0.119
29.900, 0.114
30.000, 0.117
30.100, 0.116
30.200, 0.122
30.300, 0.112
30.400, 0.124
30.500, 0.119
30.600, 0.127
30.700, 0.115
30.800, 0.126
30.900, 0.118
31.000, 0.116
31.100, 0.117
31.200, 0.120
31.300, 0.119
31.400, 0.130
31.500, 0.127
31.600, 0.120
31.700, 0.117
31.800, 0.119
31.900, 0.122
32.000, 0.117
32.100, 0.123
32.200, 0.124
32.300, 0.128
32.400, 0.120
32.500, 0.120
32.600, 0.124
32.700, 0.120
32.800, 0.125
32.900, 0.112
33.000, 0.111
33.100, 0.127
33.200, 0.118
33.300, 0.123
33.400, 0.120
33.500, 0.122
33.600, 0.123
33.700, 0.116
33.800, 0.118
33.900, 0.121
34.000, 0.122
34.100, 0.119
34.200, 0.125
34.300, 0.120
34.400, 0.120
34.500, 0.123
34.600, 0.121
34.700, 0.119
34.800, 0.116
34.900, 0.118
35.000, 0.109
35.100, 0.121
35.200, 0.127
35.300, 0.126
35.400, 0.118
35.500, 0.128
35.600, 0.128
35.700, 0.116
35.800, 0.123
35.900, 0.112
36.000, 0.118
36.100, 0.115
36.200, 0.117
36.300, 0.117
36.400, 0.116
36.500, 0.126
36.600, 0.115
36.700, 0.114
36.800, 0.119
36.900, 0.113
37.000, 0.111
37.100, 0.112
37.200, 0.124
37.300, 0.112
37.400, 0.112
37.500, 0.111
37.600, 0.116
37.700, 0.106
37.800, 0.116
37.900, 0.112
38.000, 0.112
38.100, 0.122
38.200, 0.117
38.300, 0.119
38.400, 0.112
38.500, 0.118
38.600, 0.122
38.700, 0.119
38.800, 0.116
38.900, 0.119
39.000, 0.116
39.100, 0.112
39.200, 0.116
39.300, 0.120
39.400, 0.115
39.500, 0.120
39.600, 0.114
39.700, 0.112
39.800, 0.113
39.900, 0.107
40.000, 0.110
40.100, 0.107
40.200, 0.110
40.300, 0.106
40.400, 0.100
40.500, 0.115
40.600, 0.110
40.700, 0.111
40.800, 0.107
40.900, 0.117
41.000, 0.118
41.100, 0.112
41.200, 0.115
41.300, 0.115
41.400, 0.112
41.500, 0.111
41.600, 0.119
41.700, 0.115
41.800, 0.125
41.900, 0.110
42.000, 0.108
42.100, 0.108
42.200, 0.111
42.300, 0.115
42.400, 0.115
42.500, 0.111
42.600, 0.116
42.700, 0.123
42.800, 0.119
42.900, 0.126
43.000, 0.117
43.100, 0.112
43.200, 0.115
43.300, 0.111
43.400, 0.110
43.500, 0.114
43.600, 0.115
43.700, 0.116
43.800, 0.113
43.900, 0.117
44.000, 0.117
44.100, 0.109
44.200, 0.103
44.300, 0.117
44.400, 0.110
44.500, 0.119
44.600, 0.126
44.700, 0.112
44.800, 0.120
44.900, 0.114
45.000, 0.115
45.100, 0.121
45.200, 0.123
45.300, 0.119
45.400, 0.116
45.500, 0.109
45.600, 0.109
45.700, 0.102
45.800, 0.111
45.900, 0.104
46.000, 0.109
46.100, 0.116
46.200, 0.114
46.300, 0.110
46.400, 0.109
46.500, 0.107
46.600, 0.110
46.700, 0.107
46.800, 0.109
46.900, 0.117
47.000, 0.109
47.100, 0.110
47.200, 0.108
47.300, 0.105
47.400, 0.108
47.500, 0.113
47.600, 0.115
47.700, 0.104
47.800, 0.110
47.900, 0.107
48.000, 0.119
48.100, 0.120
48.200, 0.107
48.300, 0.118
48.400, 0.117
48.500, 0.123
48.600, 0.117
48.700, 0.107
48.800, 0.117
48.900, 0.109
49.000, 0.109
49.100, 0.118
49.200, 0.114
49.300, 0.109
49.400, 0.105
49.500, 0.118
49.600, 0.114
49.700, 0.112
49.800, 0.107
49.900, 0.116
50.000, 0.108
50.100, 0.113
50.200, 0.110
50.300, 0.112
50.400, 0.110
50.500, 0.116
50.600, 0.114
50.700, 0.113
50.800, 0.119
50.900, 0.112
51.000, 0.114
51.100, 0.117
51.200, 0.112
51.300, 0.115
51.400, 0.112
51.500, 0.122
51.600, 0.102
51.700, 0.105
51.800, 0.109
51.900, 0.109
52.000, 0.105
52.100, 0.112
52.200, 0.112
52.300, 0.114
52.400, 0.109
52.500, 0.106
52.600, 0.109
52.700, 0.106
52.800, 0.104
52.900, 0.096
53.000, 0.110
53.100, 0.109
53.200, 0.105
53.300, 0.108
53.400, 0.104
53.500, 0.115
53.600, 0.117
53.700, 0.112
53.800, 0.112
53.900, 0.111
54.000, 0.115
54.100, 0.115
54.200, 0.105
54.300, 0.110
54.400, 0.119
54.500, 0.120
54.600, 0.119
54.700, 0.123
54.800, 0.116
54.900, 0.110
55.000, 0.115
55.100, 0.113
55.200, 0.109
55.300, 0.111
55.400, 0.112
55.500, 0.123
55.600, 0.122
55.700, 0.115
55.800, 0.116
55.900, 0.118
56.000, 0.115
56.100, 0.116
56.200, 0.111
56.300, 0.118
56.400, 0.111
56.500, 0.113
56.600, 0.114
56.700, 0.107
56.800, 0.113
56.900, 0.111
57.000, 0.104
57.100, 0.102
57.200, 0.107
57.300, 0.108
57.400, 0.110
57.500, 0.107
57.600, 0.107
57.700, 0.112
57.800, 0.109
57.900, 0.114
58.000, 0.110
58.100, 0.105
58.200, 0.111
58.300, 0.116
58.400, 0.114
58.500, 0.125
58.600, 0.114
58.700, 0.117
58.800, 0.112
58.900, 0.115
59.000, 0.110
59.100, 0.114
59.200, 0.107
59.300, 0.119
59.400, 0.118
59.500, 0.108
59.600, 0.115
59.700, 0.126
59.800, 0.115
59.900, 0.117
60.000, 0.111
60.100, 0.124
60.200, 0.119
60.300, 0.120
60.400, 0.113
60.500, 0.124
60.600, 0.113
60.700, 0.113
60.800, 0.116
60.900, 0.117
61.000, 0.109
61.100, 0.110
61.200, 0.110
61.300, 0.116
61.400, 0.113
61.500, 0.115
61.600, 0.127
61.700, 0.116
61.800, 0.112
61.900, 0.117
62.000, 0.118
62.100, 0.113
62.200, 0.112
62.300, 0.117
62.400, 0.114
62.500, 0.126
62.600, 0.117
62.700, 0.121
62.800, 0.109
62.900, 0.117
63.000, 0.114
63.100, 0.120
63.200, 0.127
63.300, 0.120
63.400, 0.121
63.500, 0.125
63.600, 0.119
63.700, 0.119
63.800, 0.117
63.900, 0.116
64.000, 0.131
64.100, 0.134
64.200, 0.120
64.300, 0.117
64.400, 0.123
64.500, 0.119
64.600, 0.126
64.700, 0.117
64.800, 0.122
64.900, 0.120
65.000, 0.117
65.100, 0.111
65.200, 0.116
65.300, 0.118
65.400, 0.125
65.500, 0.120
65.600, 0.138
65.700, 0.122
65.800, 0.115
65.900, 0.123
66.000, 0.123
66.100, 0.121
66.200, 0.124
66.300, 0.124
66.400, 0.114
66.500, 0.108
66.600, 0.117
66.700, 0.115
66.800, 0.125
66.900, 0.124
67.000, 0.122
67.100, 0.132
67.200, 0.125
67.300, 0.120
67.400, 0.122
67.500, 0.120
67.600, 0.117
67.700, 0.126
67.800, 0.127
67.900, 0.132
68.000, 0.131
68.100, 0.125
68.200, 0.128
68.300, 0.118
68.400, 0.113
68.500, 0.121
68.600, 0.123
68.700, 0.119
68.800, 0.115
68.900, 0.117
69.000, 0.119
69.100, 0.120
69.200, 0.110
69.300, 0.122
69.400, 0.114
69.500, 0.122
69.600, 0.124
69.700, 0.110
69.800, 0.121
69.900, 0.127
70.000, 0.112
70.100, 0.117
70.200, 0.125
70.300, 0.112
70.400, 0.110
70.500, 0.120
70.600, 0.120
70.700, 0.120
70.800, 0.115
70.900, 0.110
71.000, 0.112
71.100, 0.108
71.200, 0.113
71.300, 0.111
71.400, 0.118
71.500, 0.114
71.600, 0.124
71.700, 0.110
71.800, 0.120
71.900, 0.113
72.000, 0.106
72.100, 0.119
72.200, 0.111
72.300, 0.115
72.400, 0.116
72.500, 0.112
72.600, 0.112
72.700, 0.121
72.800, 0.108
72.900, 0.113
73.000, 0.109
73.100, 0.116
73.200, 0.122
73.300, 0.116
73.400, 0.112
73.500, 0.119
73.600, 0.119
73.700, 0.114
73.800, 0.117
73.900, 0.118
74.000, 0.108
74.100, 0.114
74.200, 0.112
74.300, 0.115
74.400, 0.117
74.500, 0.124
74.600, 0.107
74.700, 0.116
74.800, 0.120
74.900, 0.109
75.000, 0.114
75.100, 0.103
75.200, 0.113
75.300, 0.116
75.400, 0.111
75.500, 0.115
75.600, 0.121
75.700, 0.119
75.800, 0.118
75.900, 0.122
76.000, 0.122
76.100, 0.122
76.200, 0.120
76.300, 0.119
76.400, 0.123
76.500, 0.123
76.600, 0.115
76.700, 0.125
76.800, 0.124
76.900, 0.117
77.000, 0.118
77.100, 0.118
77.200, 0.112
77.300, 0.116
77.400, 0.115
77.500, 0.114
77.600, 0.112
77.700, 0.119
77.800, 0.111
77.900, 0.122
78.000, 0.120
78.100, 0.119
78.200, 0.110
78.300, 0.110
78.400, 0.125
78.500, 0.120
78.600, 0.126
78.700, 0.129
78.800, 0.114
78.900, 0.121
79.000, 0.124
79.100, 0.129
79.200, 0.119
79.300, 0.121
79.400, 0.113
79.500, 0.121
79.600, 0.112
79.700, 0.114
79.800, 0.114
79.900, 0.111
80.000, 0.112
80.100, 0.112
80.200, 0.106
80.300, 0.107
80.400, 0.102
80.500, 0.110
80.600, 0.109
80.700, 0.112
80.800, 0.107
80.900, 0.115
81.000, 0.118
81.100, 0.105
81.200, 0.119
81.300, 0.112
81.400, 0.107
81.500, 0.117
81.600, 0.114
81.700, 0.116
81.800, 0.111
81.900, 0.113
82.000, 0.110
82.100, 0.113
82.200, 0.127
82.300, 0.132
82.400, 0.135
82.500, 0.112
82.600, 0.120
82.700, 0.122
82.800, 0.110
82.900, 0.113
83.000, 0.125
83.100, 0.122
83.200, 0.114
83.300, 0.113
83.400, 0.102
83.500, 0.126
83.600, 0.116
83.700, 0.121
83.800, 0.113
83.900, 0.116
84.000, 0.118
84.100, 0.119
84.200, 0.118
84.300, 0.118
84.400, 0.115
84.500, 0.121
84.600, 0.126
84.700, 0.116
84.800, 0.120
84.900, 0.124
85.000, 0.117
85.100, 0.129
85.200, 0.116
85.300, 0.112
85.400, 0.123
85.500, 0.122
85.600, 0.122
85.700, 0.124
85.800, 0.117
85.900, 0.109
86.000, 0.120
86.100, 0.115
86.200, 0.117
86.300, 0.119
86.400, 0.113
86.500, 0.109
86.600, 0.111
86.700, 0.114
86.800, 0.118
86.900, 0.115
87.000, 0.112
87.100, 0.119
87.200, 0.109
87.300, 0.107
87.400, 0.123
87.500, 0.119
87.600, 0.114
87.700, 0.106
87.800, 0.107
87.900, 0.112
88.000, 0.115
88.100, 0.105
88.200, 0.114
88.300, 0.110
88.400, 0.110
88.500, 0.107
88.600, 0.108
88.700, 0.111
88.800, 0.106
88.900, 0.106
89.000, 0.112
89.100, 0.119
89.200, 0.121
89.300, 0.118
89.400, 0.126
89.500, 0.122
89.600, 0.121
89.700, 0.123
89.800, 0.118
89.900, 0.122
90.000, 0.121
90.100, 0.117
90.200, 0.122
90.300, 0.116
90.400, 0.131
90.500, 0.119
90.600, 0.126
90.700, 0.120
90.800, 0.119
90.900, 0.114
91.000, 0.119
91.100, 0.111
91.200, 0.122
91.300, 0.122
91.400, 0.125
91.500, 0.119
91.600, 0.127
91.700, 0.118
91.800, 0.117
91.900, 0.122
92.000, 0.125
92.100, 0.128
92.200, 0.118
92.300, 0.119
92.400, 0.122
92.500, 0.128
92.600, 0.124
92.700, 0.124
92.800, 0.117
92.900, 0.119
93.000, 0.106
93.100, 0.111
93.200, 0.114
93.300, 0.120
93.400, 0.120
93.500, 0.118
93.600, 0.114
93.700, 0.116
93.800, 0.121
93.900, 0.110
94.000, 0.118
94.100, 0.111
94.200, 0.118
94.300, 0.115
94.400, 0.133
94.500, 0.118
94.600, 0.120
94.700, 0.117
94.800, 0.117
94.900, 0.118
95.000, 0.119
95.100, 0.119
95.200, 0.118
95.300, 0.120
95.400, 0.118
95.500, 0.135
95.600, 0.123
95.700, 0.119
95.800, 0.118
95.900, 0.120
96.000, 0.120
96.100, 0.116
96.200, 0.120
96.300, 0.113
96.400, 0.117
96.500, 0.125
96.600, 0.119
96.700, 0.130
96.800, 0.124
96.900, 0.121
97.000, 0.140
97.100, 0.119
97.200, 0.116
97.300, 0.133
97.400, 0.123
97.500, 0.126
97.600, 0.121
97.700, 0.117
97.800, 0.121
97.900, 0.126
98.000, 0.126
98.100, 0.117
98.200, 0.127
98.300, 0.119
98.400, 0.115
98.500, 0.120
98.600, 0.119
98.700, 0.116
98.800, 0.115
98.900, 0.122
99.000, 0.119
99.100, 0.111
99.200, 0.112
99.300, 0.125
99.400, 0.121
99.500, 0.121
99.600, 0.118
99.700, 0.119
99.800, 0.124
99.900, 0.118
100.000, 0.120
100.100, 0.119
100.200, 0.120
100.300, 0.117
100.400, 0.110
100.500, 0.120
100.600, 0.111
100.700, 0.107
100.800, 0.111
100.900, 0.109
101.000, 0.111
101.100, 0.107
101.200, 0.113
101.300, 0.111
101.400, 0.115
101.500, 0.113
101.600, 0.112
101.700, 0.112
101.800, 0.120
101.900, 0.118
102.000, 0.122
102.100, 0.124
102.200, 0.119
102.300, 0.114
102.400, 0.121
102.500, 0.122
102.600, 0.112
102.700, 0.112
102.800, 0.126
102.900, 0.116
103.000, 0.121
103.100, 0.121
103.200, 0.128
103.300, 0.114
103.400, 0.125
103.500, 0.118
103.600, 0.131
103.700, 0.118
103.800, 0.119
103.900, 0.123
104.000, 0.116
104.100, 0.125
104.200, 0.117
104.300, 0.116
104.400, 0.111
104.500, 0.116
104.600, 0.125
104.700, 0.119
104.800, 0.123
104.900, 0.126
105.000, 0.119
105.100, 0.126
105.200, 0.122
105.300, 0.121
105.400, 0.125
105.500, 0.119
105.600, 0.125
105.700, 0.127
105.800, 0.127
105.900, 0.125
106.000, 0.130
106.100, 0.139
106.200, 0.125
106.300, 0.118
106.400, 0.134
106.500, 0.126
106.600, 0.118
106.700, 0.117
106.800, 0.114
106.900, 0.117
107.000, 0.119
107.100, 0.124
107.200, 0.126
107.300, 0.122
107.400, 0.122
107.500, 0.123
107.600, 0.126
107.700, 0.131
107.800, 0.117
107.900, 0.119
108.000, 0.137
108.100, 0.129
108.200, 0.120
108.300, 0.117
108.400, 0.121
108.500, 0.118
108.600, 0.118
108.700, 0.120
108.800, 0.131
108.900, 0.130
109.000, 0.131
109.100, 0.128
109.200, 0.129
109.300, 0.125
109.400, 0.126
109.500, 0.123
109.600, 0.127
109.700, 0.129
109.800, 0.122
109.900, 0.132
110.000, 0.124
110.100, 0.119
110.200, 0.118
110.300, 0.127
110.400, 0.126
110.500, 0.116
110.600, 0.123
110.700, 0.128
110.800, 0.121
110.900, 0.119
111.000, 0.125
111.100, 0.117
111.200, 0.127
111.300, 0.123
111.400, 0.124
111.500, 0.129
111.600, 0.124
111.700, 0.123
111.800, 0.121
111.900, 0.129
112.000, 0.123
112.100, 0.125
112.200, 0.131
112.300, 0.127
112.400, 0.128
112.500, 0.125
112.600, 0.131
112.700, 0.117
112.800, 0.119
112.900, 0.128
113.000, 0.126
113.100, 0.128
113.200, 0.133
113.300, 0.135
113.400, 0.133
113.500, 0.129
113.600, 0.126
113.700, 0.120
113.800, 0.131
113.900, 0.133
114.000, 0.123
114.100, 0.127
114.200, 0.121
114.300, 0.127
114.400, 0.126
114.500, 0.128
114.600, 0.140
114.700, 0.133
114.800, 0.127
114.900, 0.130
115.000, 0.131
115.100, 0.119
115.200, 0.118
115.300, 0.121
115.400, 0.123
115.500, 0.130
115.600, 0.131
115.700, 0.129
115.800, 0.139
115.900, 0.127
116.000, 0.129
116.100, 0.134
116.200, 0.132
116.300, 0.135
116.400, 0.145
116.500, 0.141
116.600, 0.137
116.700, 0.128
116.800, 0.140
116.900, 0.126
117.000, 0.128
117.100, 0.125
117.200, 0.126
117.300, 0.129
117.400, 0.128
117.500, 0.124
117.600, 0.126
117.700, 0.127
117.800, 0.123
117.900, 0.136
118.000, 0.128
118.100, 0.126
118.200, 0.126
118.300, 0.129
118.400, 0.133
118.500, 0.139
118.600, 0.126
118.700, 0.128
118.800, 0.134
118.900, 0.125
119.000, 0.120
119.100, 0.128
119.200, 0.124
119.300, 0.122
119.400, 0.118
119.500, 0.125
119.600, 0.134
119.700, 0.134
119.800, 0.131
119.900, 0.138
120.000, 0.141
120.100, 0.135
120.200, 0.126
120.300, 0.132
120.400, 0.133
120.500, 0.134
120.600, 0.128
120.700, 0.138
120.800, 0.134
120.900, 0.140
121.000, 0.130
121.100, 0.144
121.200, 0.141
121.300, 0.143
121.400, 0.141
121.500, 0.129
121.600, 0.128
121.700, 0.124
121.800, 0.124
121.900, 0.135
122.000, 0.121
122.100, 0.132
122.200, 0.132
122.300, 0.116
122.400, 0.127
122.500, 0.128
122.600, 0.121
122.700, 0.112
122.800, 0.122
122.900, 0.120
123.000, 0.125
123.100, 0.126
123.200, 0.121
123.300, 0.124
123.400, 0.114
123.500, 0.125
123.600, 0.115
123.700, 0.124
123.800, 0.129
123.900, 0.136
124.000, 0.129
124.100, 0.135
124.200, 0.131
124.300, 0.118
124.400, 0.117
124.500, 0.127
124.600, 0.121
124.700, 0.119
124.800, 0.125
124.900, 0.125
125.000, 0.124
125.100, 0.137
125.200, 0.123
125.300, 0.125
125.400, 0.132
125.500, 0.125
125.600, 0.122
125.700, 0.129
125.800, 0.125
125.900, 0.143
126.000, 0.131
126.100, 0.125
126.200, 0.131
126.300, 0.132
126.400, 0.125
126.500, 0.134
126.600, 0.116
126.700, 0.122
126.800, 0.123
126.900, 0.124
127.000, 0.116
127.100, 0.123
127.200, 0.125
127.300, 0.120
127.400, 0.125
127.500, 0.128
127.600, 0.130
127.700, 0.126
127.800, 0.122
127.900, 0.116
128.000, 0.121
128.100, 0.122
128.200, 0.126
128.300, 0.115
128.400, 0.119
128.500, 0.120
128.600, 0.116
128.700, 0.123
128.800, 0.117
128.900, 0.126
129.000, 0.125
129.100, 0.119
129.200, 0.114
129.300, 0.115
129.400, 0.120
129.500, 0.126
129.600, 0.114
129.700, 0.107
129.800, 0.114
129.900, 0.109
130.000, 0.121
130.100, 0.114
130.200, 0.114
130.300, 0.118
130.400, 0.120
130.500, 0.123
130.600, 0.121
130.700, 0.118
130.800, 0.117
130.900, 0.126
131.000, 0.130
131.100, 0.128
131.200, 0.116
131.300, 0.115
131.400, 0.119
131.500, 0.116
131.600, 0.113
131.700, 0.120
131.800, 0.132
131.900, 0.121
132.000, 0.108
132.100, 0.124
132.200, 0.118
132.300, 0.128
132.400, 0.118
132.500, 0.119
132.600, 0.118
132.700, 0.128
132.800, 0.119
132.900, 0.114
133.000, 0.119
133.100, 0.101
133.200, 0.119
133.300, 0.114
133.400, 0.110
133.500, 0.119
133.600, 0.121
133.700, 0.123
133.800, 0.121
133.900, 0.120
134.000, 0.120
134.100, 0.131
134.200, 0.130
134.300, 0.122
134.400, 0.119
134.500, 0.123
134.600, 0.119
134.700, 0.125
134.800, 0.138
134.900, 0.128
135.000, 0.125
135.100, 0.119
135.200, 0.114
135.300, 0.132
135.400, 0.134
135.500, 0.124
135.600, 0.129
135.700, 0.135
135.800, 0.119
135.900, 0.125
136.000, 0.121
136.100, 0.130
136.200, 0.129
136.300, 0.115
136.400, 0.125
136.500, 0.133
136.600, 0.124
136.700, 0.133
136.800, 0.122
136.900, 0.114
137.000, 0.124
137.100, 0.119
137.200, 0.129
137.300, 0.120
137.400, 0.134
137.500, 0.120
137.600, 0.114
137.700, 0.129
137.800, 0.125
137.900, 0.122
138.000, 0.126
138.100, 0.123
138.200, 0.125
138.300, 0.123
138.400, 0.132
138.500, 0.130
138.600, 0.134
138.700, 0.124
138.800, 0.122
138.900, 0.133
139.000, 0.134
139.100, 0.128
139.200, 0.122
139.300, 0.122
139.400, 0.117
139.500, 0.116
139.600, 0.126
139.700, 0.115
139.800, 0.117
139.900, 0.115
140.000, 0.117
140.100, 0.117
140.200, 0.110
140.300, 0.109
140.400, 0.116
