Time (ps), RMSD (nm)
0.000, 0.001
0.100, 0.130
0.200, 0.144
0.300, 0.140
0.400, 0.142
0.500, 0.143
0.600, 0.148
0.700, 0.140
0.800, 0.143
0.900, 0.140
1.000, 0.134
1.100, 0.147
1.200, 0.143
1.300, 0.137
1.400, 0.143
1.500, 0.135
1.600, 0.138
1.700, 0.139
1.800, 0.146
1.900, 0.135
2.000, 0.144
2.100, 0.145
2.200, 0.152
2.300, 0.144
2.400, 0.151
2.500, 0.145
2.600, 0.146
2.700, 0.145
2.800, 0.144
2.900, 0.143
3.000, 0.151
3.100, 0.145
3.200, 0.150
3.300, 0.155
3.400, 0.155
3.500, 0.158
3.600, 0.159
3.700, 0.153
3.800, 0.154
3.900, 0.155
4.000, 0.148
4.100, 0.163
4.200, 0.164
4.300, 0.145
4.400, 0.145
4.500, 0.138
4.600, 0.151
4.700, 0.158
4.800, 0.142
4.900, 0.154
5.000, 0.163
5.100, 0.155
5.200, 0.150
5.300, 0.144
5.400, 0.159
5.500, 0.139
5.600, 0.140
5.700, 0.146
5.800, 0.141
5.900, 0.147
6.000, 0.146
6.100, 0.154
6.200, 0.142
6.300, 0.152
6.400, 0.142
6.500, 0.144
6.600, 0.139
6.700, 0.141
6.800, 0.139
6.900, 0.142
7.000, 0.147
7.100, 0.148
7.200, 0.148
7.300, 0.151
7.400, 0.148
7.500, 0.150
7.600, 0.145
7.700, 0.149
7.800, 0.155
7.900, 0.155
8.000, 0.152
8.100, 0.149
8.200, 0.143
8.300, 0.157
8.400, 0.154
8.500, 0.158
8.600, 0.157
8.700, 0.154
8.800, 0.144
8.900, 0.151
9.000, 0.147
9.100, 0.155
9.200, 0.153
9.300, 0.156
9.400, 0.143
9.500, 0.149
9.600, 0.143
9.700, 0.142
9.800, 0.137
9.900, 0.143
10.000, 0.135
10.100, 0.148
10.200, 0.147
10.300, 0.147
10.400, 0.145
10.500, 0.147
10.600, 0.146
10.700, 0.146
10.800, 0.140
10.900, 0.151
11.000, 0.152
11.100, 0.145
11.200, 0.149
11.300, 0.161
11.400, 0.152
11.500, 0.152
11.600, 0.144
11.700, 0.145
11.800, 0.147
11.900, 0.145
12.000, 0.146
12.100, 0.148
12.200, 0.153
12.300, 0.153
12.400, 0.158
12.500, 0.145
12.600, 0.155
12.700, 0.149
12.800, 0.155
12.900, 0.156
13.000, 0.157
13.100, 0.169
13.200, 0.154
13.300, 0.153
13.400, 0.160
13.500, 0.157
13.600, 0.153
13.700, 0.157
13.800, 0.155
13.900, 0.148
14.000, 0.156
14.100, 0.161
14.200, 0.164
14.300, 0.153
14.400, 0.156
14.500, 0.142
14.600, 0.145
14.700, 0.158
14.800, 0.155
14.900, 0.150
15.000, 0.145
15.100, 0.147
15.200, 0.150
15.300, 0.138
15.400, 0.138
15.500, 0.141
15.600, 0.144
15.700, 0.141
15.800, 0.141
15.900, 0.150
16.000, 0.152
16.100, 0.154
16.200, 0.157
16.300, 0.155
16.400, 0.153
16.500, 0.147
16.600, 0.143
16.700, 0.150
16.800, 0.165
16.900, 0.149
17.000, 0.150
17.100, 0.160
17.200, 0.161
17.300, 0.168
17.400, 0.157
17.500, 0.155
17.600, 0.149
17.700, 0.141
17.800, 0.147
17.900, 0.150
18.000, 0.154
18.100, 0.148
18.200, 0.149
18.300, 0.150
18.400, 0.149
18.500, 0.166
18.600, 0.164
18.700, 0.168
18.800, 0.168
18.900, 0.168
19.000, 0.161
19.100, 0.162
19.200, 0.168
19.300, 0.160
19.400, 0.160
19.500, 0.159
19.600, 0.155
19.700, 0.152
19.800, 0.156
19.900, 0.151
20.000, 0.160
20.100, 0.168
20.200, 0.158
20.300, 0.163
20.400, 0.167
20.500, 0.154
20.600, 0.153
20.700, 0.156
20.800, 0.155
20.900, 0.155
21.000, 0.159
21.100, 0.152
21.200, 0.158
21.300, 0.147
21.400, 0.147
21.500, 0.141
21.600, 0.132
21.700, 0.147
21.800, 0.151
21.900, 0.150
22.000, 0.136
22.100, 0.136
22.200, 0.139
22.300, 0.156
22.400, 0.158
22.500, 0.153
22.600, 0.157
22.700, 0.158
22.800, 0.164
22.900, 0.164
23.000, 0.159
23.100, 0.155
23.200, 0.154
23.300, 0.157
23.400, 0.147
23.500, 0.149
23.600, 0.152
23.700, 0.149
23.800, 0.151
23.900, 0.143
24.000, 0.149
24.100, 0.148
24.200, 0.152
24.300, 0.155
24.400, 0.152
24.500, 0.151
24.600, 0.157
24.700, 0.160
24.800, 0.154
24.900, 0.160
25.000, 0.148
25.100, 0.155
25.200, 0.151
25.300, 0.138
25.400, 0.152
25.500, 0.149
25.600, 0.144
25.700, 0.143
25.800, 0.143
25.900, 0.149
26.000, 0.146
26.100, 0.149
26.200, 0.142
26.300, 0.148
26.400, 0.151
26.500, 0.147
26.600, 0.156
26.700, 0.150
26.800, 0.162
26.900, 0.147
27.000, 0.151
27.100, 0.150
27.200, 0.143
27.300, 0.140
27.400, 0.154
27.500, 0.146
27.600, 0.145
27.700, 0.151
27.800, 0.142
27.900, 0.146
28.000, 0.150
28.100, 0.136
28.200, 0.145
28.300, 0.142
28.400, 0.150
28.500, 0.135
28.600, 0.148
28.700, 0.157
28.800, 0.143
28.900, 0.148
29.000, 0.144
29.100, 0.151
29.200, 0.148
29.300, 0.139
29.400, 0.141
29.500, 0.149
29.600, 0.144
29.700, 0.144
29.800, 0.142
29.900, 0.149
30.000, 0.156
30.100, 0.143
30.200, 0.145
30.300, 0.136
30.400, 0.141
30.500, 0.146
30.600, 0.143
30.700, 0.141
30.800, 0.147
30.900, 0.151
31.000, 0.147
31.100, 0.141
31.200, 0.141
31.300, 0.142
31.400, 0.134
31.500, 0.137
31.600, 0.141
31.700, 0.139
31.800, 0.134
31.900, 0.142
32.000, 0.142
32.100, 0.150
32.200, 0.150
32.300, 0.152
32.400, 0.148
32.500, 0.142
32.600, 0.149
32.700, 0.136
32.800, 0.137
32.900, 0.151
33.000, 0.138
33.100, 0.151
33.200, 0.143
33.300, 0.143
33.400, 0.146
33.500, 0.133
33.600, 0.152
33.700, 0.145
33.800, 0.142
33.900, 0.145
34.000, 0.147
34.100, 0.153
34.200, 0.150
34.300, 0.150
34.400, 0.151
34.500, 0.154
34.600, 0.143
34.700, 0.149
34.800, 0.138
34.900, 0.142
35.000, 0.152
35.100, 0.158
35.200, 0.144
35.300, 0.150
35.400, 0.148
35.500, 0.141
35.600, 0.138
35.700, 0.147
35.800, 0.146
35.900, 0.149
36.000, 0.146
36.100, 0.147
36.200, 0.137
36.300, 0.140
36.400, 0.148
36.500, 0.137
36.600, 0.134
36.700, 0.143
36.800, 0.140
36.900, 0.135
37.000, 0.129
37.100, 0.138
37.200, 0.147
37.300, 0.148
37.400, 0.141
37.500, 0.138
37.600, 0.151
37.700, 0.151
37.800, 0.146
37.900, 0.154
38.000, 0.142
38.100, 0.138
38.200, 0.147
38.300, 0.145
38.400, 0.144
38.500, 0.152
38.600, 0.153
38.700, 0.148
38.800, 0.149
38.900, 0.157
39.000, 0.142
39.100, 0.144
39.200, 0.140
39.300, 0.141
39.400, 0.142
39.500, 0.134
39.600, 0.135
39.700, 0.143
39.800, 0.138
39.900, 0.138
40.000, 0.139
40.100, 0.147
40.200, 0.143
40.300, 0.151
40.400, 0.136
40.500, 0.140
40.600, 0.135
40.700, 0.144
40.800, 0.131
40.900, 0.136
41.000, 0.143
41.100, 0.145
41.200, 0.147
41.300, 0.147
41.400, 0.141
41.500, 0.143
41.600, 0.155
41.700, 0.153
41.800, 0.146
41.900, 0.159
42.000, 0.155
42.100, 0.157
42.200, 0.162
42.300, 0.147
42.400, 0.151
42.500, 0.151
42.600, 0.151
42.700, 0.152
42.800, 0.152
42.900, 0.147
43.000, 0.152
43.100, 0.146
43.200, 0.152
43.300, 0.145
43.400, 0.153
43.500, 0.150
43.600, 0.155
43.700, 0.152
43.800, 0.158
43.900, 0.159
44.000, 0.151
44.100, 0.148
44.200, 0.140
44.300, 0.144
44.400, 0.152
44.500, 0.144
44.600, 0.142
44.700, 0.143
44.800, 0.140
44.900, 0.146
45.000, 0.158
45.100, 0.167
45.200, 0.149
45.300, 0.161
45.400, 0.159
45.500, 0.143
45.600, 0.153
45.700, 0.153
45.800, 0.144
45.900, 0.152
46.000, 0.155
46.100, 0.141
46.200, 0.145
46.300, 0.141
46.400, 0.152
46.500, 0.152
46.600, 0.144
46.700, 0.145
46.800, 0.154
46.900, 0.145
47.000, 0.159
47.100, 0.148
47.200, 0.154
47.300, 0.136
47.400, 0.161
47.500, 0.149
47.600, 0.149
47.700, 0.157
47.800, 0.152
47.900, 0.151
48.000, 0.142
48.100, 0.139
48.200, 0.157
48.300, 0.141
48.400, 0.152
48.500, 0.151
48.600, 0.155
48.700, 0.151
48.800, 0.154
48.900, 0.155
49.000, 0.161
49.100, 0.147
49.200, 0.156
49.300, 0.156
49.400, 0.157
49.500, 0.159
49.600, 0.159
49.700, 0.158
49.800, 0.153
49.900, 0.142
50.000, 0.147
50.100, 0.147
50.200, 0.138
50.300, 0.147
50.400, 0.145
50.500, 0.147
50.600, 0.151
50.700, 0.162
50.800, 0.150
50.900, 0.158
51.000, 0.155
51.100, 0.159
51.200, 0.163
51.300, 0.157
51.400, 0.153
51.500, 0.162
51.600, 0.157
51.700, 0.144
51.800, 0.151
51.900, 0.155
52.000, 0.156
52.100, 0.161
52.200, 0.147
52.300, 0.160
52.400, 0.152
52.500, 0.151
52.600, 0.143
52.700, 0.146
52.800, 0.161
52.900, 0.151
53.000, 0.156
53.100, 0.155
53.200, 0.154
53.300, 0.155
53.400, 0.144
53.500, 0.151
53.600, 0.148
53.700, 0.153
53.800, 0.148
53.900, 0.144
54.000, 0.139
54.100, 0.145
54.200, 0.147
54.300, 0.147
54.400, 0.154
54.500, 0.163
54.600, 0.154
54.700, 0.158
54.800, 0.163
54.900, 0.158
55.000, 0.152
55.100, 0.155
55.200, 0.158
55.300, 0.153
55.400, 0.151
55.500, 0.147
55.600, 0.147
55.700, 0.148
55.800, 0.155
55.900, 0.161
56.000, 0.162
56.100, 0.157
56.200, 0.155
56.300, 0.143
56.400, 0.162
56.500, 0.152
56.600, 0.153
56.700, 0.143
56.800, 0.147
56.900, 0.150
57.000, 0.158
57.100, 0.149
57.200, 0.155
57.300, 0.161
57.400, 0.151
57.500, 0.157
57.600, 0.153
57.700, 0.164
57.800, 0.151
57.900, 0.159
58.000, 0.154
58.100, 0.156
58.200, 0.158
58.300, 0.153
58.400, 0.147
58.500, 0.156
58.600, 0.160
58.700, 0.158
58.800, 0.164
58.900, 0.157
59.000, 0.149
59.100, 0.162
59.200, 0.163
59.300, 0.148
59.400, 0.159
59.500, 0.154
59.600, 0.160
59.700, 0.153
59.800, 0.146
59.900, 0.152
60.000, 0.162
60.100, 0.165
60.200, 0.157
60.300, 0.169
60.400, 0.168
60.500, 0.149
60.600, 0.152
60.700, 0.155
60.800, 0.151
60.900, 0.163
61.000, 0.165
61.100, 0.163
61.200, 0.159
61.300, 0.147
61.400, 0.143
61.500, 0.149
61.600, 0.152
61.700, 0.155
61.800, 0.150
61.900, 0.151
62.000, 0.154
62.100, 0.158
62.200, 0.159
62.300, 0.158
62.400, 0.160
62.500, 0.173
62.600, 0.153
62.700, 0.160
62.800, 0.155
62.900, 0.155
63.000, 0.163
63.100, 0.159
63.200, 0.152
63.300, 0.147
63.400, 0.150
63.500, 0.163
63.600, 0.161
63.700, 0.157
63.800, 0.156
63.900, 0.154
64.000, 0.152
64.100, 0.160
64.200, 0.162
64.300, 0.167
64.400, 0.154
64.500, 0.164
64.600, 0.162
64.700, 0.164
64.800, 0.155
64.900, 0.159
65.000, 0.150
65.100, 0.169
65.200, 0.167
65.300, 0.166
65.400, 0.162
65.500, 0.173
65.600, 0.170
65.700, 0.167
65.800, 0.172
65.900, 0.172
66.000, 0.173
66.100, 0.177
66.200, 0.160
66.300, 0.165
66.400, 0.175
66.500, 0.176
66.600, 0.178
66.700, 0.186
66.800, 0.166
66.900, 0.158
67.000, 0.153
67.100, 0.167
67.200, 0.161
67.300, 0.159
67.400, 0.161
67.500, 0.166
67.600, 0.160
67.700, 0.157
67.800, 0.162
67.900, 0.158
68.000, 0.169
68.100, 0.175
68.200, 0.175
68.300, 0.165
68.400, 0.162
68.500, 0.168
68.600, 0.168
68.700, 0.161
68.800, 0.160
68.900, 0.168
69.000, 0.164
69.100, 0.168
69.200, 0.168
69.300, 0.177
69.400, 0.171
69.500, 0.164
69.600, 0.161
69.700, 0.163
69.800, 0.164
69.900, 0.171
70.000, 0.159
70.100, 0.164
70.200, 0.157
70.300, 0.172
70.400, 0.170
70.500, 0.173
70.600, 0.176
70.700, 0.164
70.800, 0.160
70.900, 0.156
71.000, 0.162
71.100, 0.166
71.200, 0.160
71.300, 0.169
71.400, 0.176
71.500, 0.171
71.600, 0.169
71.700, 0.165
71.800, 0.161
71.900, 0.165
72.000, 0.168
72.100, 0.163
72.200, 0.164
72.300, 0.174
72.400, 0.175
72.500, 0.171
72.600, 0.174
72.700, 0.171
72.800, 0.167
72.900, 0.173
73.000, 0.162
73.100, 0.164
73.200, 0.158
73.300, 0.159
73.400, 0.161
73.500, 0.157
73.600, 0.168
73.700, 0.179
73.800, 0.166
73.900, 0.171
74.000, 0.170
74.100, 0.174
74.200, 0.166
74.300, 0.165
74.400, 0.168
74.500, 0.166
74.600, 0.162
74.700, 0.165
74.800, 0.169
74.900, 0.162
75.000, 0.167
75.100, 0.156
75.200, 0.160
75.300, 0.170
75.400, 0.168
75.500, 0.172
75.600, 0.169
75.700, 0.166
75.800, 0.169
75.900, 0.167
76.000, 0.168
76.100, 0.170
76.200, 0.162
76.300, 0.164
76.400, 0.159
76.500, 0.157
76.600, 0.157
76.700, 0.146
76.800, 0.158
76.900, 0.163
77.000, 0.171
77.100, 0.171
77.200, 0.163
77.300, 0.163
77.400, 0.159
77.500, 0.160
77.600, 0.166
77.700, 0.166
77.800, 0.161
77.900, 0.157
78.000, 0.156
78.100, 0.151
78.200, 0.166
78.300, 0.171
78.400, 0.160
78.500, 0.159
78.600, 0.164
78.700, 0.160
78.800, 0.156
78.900, 0.159
79.000, 0.156
79.100, 0.172
79.200, 0.164
79.300, 0.164
79.400, 0.167
79.500, 0.155
79.600, 0.157
79.700, 0.160
79.800, 0.157
79.900, 0.154
80.000, 0.163
80.100, 0.158
80.200, 0.152
80.300, 0.151
80.400, 0.157
80.500, 0.158
80.600, 0.162
80.700, 0.156
80.800, 0.163
80.900, 0.159
81.000, 0.166
81.100, 0.157
81.200, 0.156
81.300, 0.152
81.400, 0.157
81.500, 0.155
81.600, 0.154
81.700, 0.158
81.800, 0.148
81.900, 0.151
82.000, 0.155
82.100, 0.158
82.200, 0.157
82.300, 0.154
82.400, 0.148
82.500, 0.153
82.600, 0.147
82.700, 0.148
82.800, 0.159
82.900, 0.142
83.000, 0.145
83.100, 0.150
83.200, 0.160
83.300, 0.153
83.400, 0.158
83.500, 0.155
83.600, 0.159
83.700, 0.152
83.800, 0.169
83.900, 0.157
84.000, 0.159
84.100, 0.159
84.200, 0.163
84.300, 0.160
84.400, 0.156
84.500, 0.155
84.600, 0.156
84.700, 0.152
84.800, 0.152
84.900, 0.146
85.000, 0.150
85.100, 0.151
85.200, 0.150
85.300, 0.155
85.400, 0.152
85.500, 0.145
85.600, 0.135
85.700, 0.151
85.800, 0.148
85.900, 0.164
86.000, 0.160
86.100, 0.164
86.200, 0.167
86.300, 0.159
86.400, 0.149
86.500, 0.143
86.600, 0.157
86.700, 0.145
86.800, 0.153
86.900, 0.140
87.000, 0.158
87.100, 0.159
87.200, 0.165
87.300, 0.157
87.400, 0.158
87.500, 0.145
87.600, 0.159
87.700, 0.152
87.800, 0.146
87.900, 0.154
88.000, 0.152
88.100, 0.156
88.200, 0.153
88.300, 0.157
88.400, 0.159
88.500, 0.148
88.600, 0.154
88.700, 0.159
88.800, 0.149
88.900, 0.151
89.000, 0.158
89.100, 0.158
89.200, 0.155
89.300, 0.152
89.400, 0.145
89.500, 0.165
89.600, 0.161
89.700, 0.151
89.800, 0.145
89.900, 0.149
90.000, 0.153
90.100, 0.163
90.200, 0.146
90.300, 0.153
90.400, 0.156
90.500, 0.156
90.600, 0.157
90.700, 0.149
90.800, 0.156
90.900, 0.154
91.000, 0.152
91.100, 0.154
91.200, 0.165
91.300, 0.161
91.400, 0.162
91.500, 0.159
91.600, 0.153
91.700, 0.146
91.800, 0.156
91.900, 0.145
92.000, 0.145
92.100, 0.153
92.200, 0.158
92.300, 0.152
92.400, 0.152
92.500, 0.156
92.600, 0.154
92.700, 0.143
92.800, 0.148
92.900, 0.153
93.000, 0.146
93.100, 0.146
93.200, 0.145
93.300, 0.148
93.400, 0.143
93.500, 0.150
93.600, 0.149
93.700, 0.149
93.800, 0.158
93.900, 0.151
94.000, 0.162
94.100, 0.166
94.200, 0.159
94.300, 0.161
94.400, 0.156
94.500, 0.159
94.600, 0.169
94.700, 0.151
94.800, 0.140
94.900, 0.148
95.000, 0.155
95.100, 0.159
95.200, 0.159
95.300, 0.164
95.400, 0.155
95.500, 0.170
95.600, 0.170
95.700, 0.158
95.800, 0.155
95.900, 0.162
96.000, 0.161
96.100, 0.162
96.200, 0.166
96.300, 0.156
96.400, 0.157
96.500, 0.165
96.600, 0.166
96.700, 0.166
96.800, 0.155
96.900, 0.150
97.000, 0.165
97.100, 0.153
97.200, 0.156
97.300, 0.155
97.400, 0.154
97.500, 0.170
97.600, 0.165
97.700, 0.173
97.800, 0.155
97.900, 0.168
98.000, 0.154
98.100, 0.152
98.200, 0.153
98.300, 0.169
98.400, 0.169
98.500, 0.167
98.600, 0.167
98.700, 0.170
98.800, 0.158
98.900, 0.159
99.000, 0.166
99.100, 0.159
99.200, 0.167
99.300, 0.158
99.400, 0.164
99.500, 0.167
99.600, 0.164
99.700, 0.161
99.800, 0.158
99.900, 0.163
100.000, 0.153
100.100, 0.164
100.200, 0.158
100.300, 0.167
100.400, 0.168
100.500, 0.171
100.600, 0.163
100.700, 0.164
100.800, 0.165
100.900, 0.152
101.000, 0.157
101.100, 0.157
101.200, 0.153
101.300, 0.164
101.400, 0.169
101.500, 0.160
101.600, 0.145
101.700, 0.149
101.800, 0.145
101.900, 0.140
102.000, 0.151
102.100, 0.145
102.200, 0.145
102.300, 0.138
102.400, 0.138
102.500, 0.141
102.600, 0.141
102.700, 0.137
102.800, 0.137
102.900, 0.147
103.000, 0.153
103.100, 0.142
103.200, 0.147
103.300, 0.140
103.400, 0.147
103.500, 0.144
103.600, 0.156
103.700, 0.151
103.800, 0.155
103.900, 0.149
104.000, 0.153
104.100, 0.151
104.200, 0.152
104.300, 0.154
104.400, 0.152
104.500, 0.150
104.600, 0.146
104.700, 0.153
104.800, 0.143
104.900, 0.141
105.000, 0.145
105.100, 0.141
105.200, 0.147
105.300, 0.145
105.400, 0.151
105.500, 0.161
105.600, 0.155
105.700, 0.156
105.800, 0.153
105.900, 0.159
106.000, 0.155
106.100, 0.155
106.200, 0.155
106.300, 0.155
106.400, 0.152
106.500, 0.158
106.600, 0.164
106.700, 0.158
106.800, 0.152
106.900, 0.151
107.000, 0.164
107.100, 0.158
107.200, 0.159
107.300, 0.160
107.400, 0.154
107.500, 0.154
107.600, 0.171
107.700, 0.154
107.800, 0.148
107.900, 0.147
108.000, 0.150
108.100, 0.148
108.200, 0.158
108.300, 0.164
108.400, 0.166
108.500, 0.156
108.600, 0.156
108.700, 0.166
108.800, 0.155
108.900, 0.162
109.000, 0.148
109.100, 0.158
109.200, 0.146
109.300, 0.154
109.400, 0.151
109.500, 0.157
109.600, 0.147
109.700, 0.144
109.800, 0.155
109.900, 0.163
110.000, 0.154
110.100, 0.150
110.200, 0.150
110.300, 0.149
110.400, 0.143
110.500, 0.146
110.600, 0.150
110.700, 0.146
110.800, 0.151
110.900, 0.154
111.000, 0.152
111.100, 0.155
111.200, 0.153
111.300, 0.162
111.400, 0.157
111.500, 0.168
111.600, 0.166
111.700, 0.157
111.800, 0.150
111.900, 0.158
112.000, 0.155
112.100, 0.158
112.200, 0.156
112.300, 0.166
112.400, 0.167
112.500, 0.163
112.600, 0.163
112.700, 0.170
112.800, 0.165
112.900, 0.158
113.000, 0.149
113.100, 0.158
113.200, 0.150
113.300, 0.169
113.400, 0.171
113.500, 0.165
113.600, 0.156
113.700, 0.157
113.800, 0.158
113.900, 0.158
114.000, 0.160
114.100, 0.161
114.200, 0.148
114.300, 0.150
114.400, 0.161
114.500, 0.165
114.600, 0.155
114.700, 0.142
114.800, 0.139
114.900, 0.148
115.000, 0.153
115.100, 0.157
115.200, 0.150
115.300, 0.164
115.400, 0.165
115.500, 0.165
115.600, 0.164
115.700, 0.155
115.800, 0.155
115.900, 0.158
116.000, 0.164
116.100, 0.154
116.200, 0.158
116.300, 0.150
116.400, 0.147
116.500, 0.157
116.600, 0.158
116.700, 0.152
116.800, 0.158
116.900, 0.154
117.000, 0.157
117.100, 0.152
117.200, 0.151
117.300, 0.148
117.400, 0.154
117.500, 0.156
117.600, 0.153
117.700, 0.152
117.800, 0.163
117.900, 0.154
118.000, 0.156
118.100, 0.150
118.200, 0.161
118.300, 0.160
118.400, 0.160
118.500, 0.169
118.600, 0.162
118.700, 0.157
118.800, 0.155
118.900, 0.152
119.000, 0.158
119.100, 0.160
119.200, 0.159
119.300, 0.159
119.400, 0.149
119.500, 0.147
119.600, 0.157
119.700, 0.156
119.800, 0.155
119.900, 0.160
120.000, 0.148
120.100, 0.160
120.200, 0.151
120.300, 0.151
120.400, 0.160
120.500, 0.154
120.600, 0.158
120.700, 0.154
120.800, 0.164
120.900, 0.158
121.000, 0.162
121.100, 0.162
121.200, 0.156
121.300, 0.161
121.400, 0.167
121.500, 0.163
121.600, 0.156
121.700, 0.152
121.800, 0.159
121.900, 0.154
122.000, 0.156
122.100, 0.157
122.200, 0.153
122.300, 0.147
122.400, 0.155
122.500, 0.151
122.600, 0.154
122.700, 0.149
122.800, 0.146
122.900, 0.154
123.000, 0.162
123.100, 0.158
123.200, 0.152
123.300, 0.152
123.400, 0.157
123.500, 0.152
123.600, 0.154
123.700, 0.155
123.800, 0.166
123.900, 0.162
124.000, 0.166
124.100, 0.165
124.200, 0.164
124.300, 0.152
124.400, 0.155
124.500, 0.168
124.600, 0.170
124.700, 0.165
124.800, 0.180
124.900, 0.178
125.000, 0.176
125.100, 0.160
125.200, 0.170
125.300, 0.166
125.400, 0.160
125.500, 0.157
125.600, 0.161
125.700, 0.161
125.800, 0.156
125.900, 0.164
126.000, 0.167
126.100, 0.166
126.200, 0.180
126.300, 0.161
126.400, 0.167
126.500, 0.168
126.600, 0.169
126.700, 0.159
126.800, 0.156
126.900, 0.164
127.000, 0.162
127.100, 0.150
127.200, 0.155
127.300, 0.161
127.400, 0.158
127.500, 0.158
127.600, 0.163
127.700, 0.153
127.800, 0.150
127.900, 0.155
128.000, 0.167
128.100, 0.164
128.200, 0.156
128.300, 0.144
128.400, 0.138
128.500, 0.134
128.600, 0.137
128.700, 0.143
128.800, 0.129
128.900, 0.130
129.000, 0.126
129.100, 0.140
129.200, 0.129
129.300, 0.137
129.400, 0.135
129.500, 0.145
129.600, 0.137
129.700, 0.135
129.800, 0.135
129.900, 0.139
130.000, 0.144
130.100, 0.129
130.200, 0.144
130.300, 0.129
130.400, 0.127
130.500, 0.139
130.600, 0.139
130.700, 0.138
130.800, 0.145
130.900, 0.142
131.000, 0.141
131.100, 0.130
131.200, 0.137
131.300, 0.140
131.400, 0.140
131.500, 0.129
131.600, 0.130
131.700, 0.128
131.800, 0.122
131.900, 0.132
132.000, 0.128
132.100, 0.124
132.200, 0.130
132.300, 0.132
132.400, 0.130
132.500, 0.139
132.600, 0.143
132.700, 0.137
132.800, 0.136
132.900, 0.145
133.000, 0.132
133.100, 0.138
133.200, 0.130
133.300, 0.137
133.400, 0.134
133.500, 0.125
133.600, 0.132
133.700, 0.135
133.800, 0.128
133.900, 0.137
134.000, 0.129
134.100, 0.136
134.200, 0.143
134.300, 0.141
134.400, 0.141
134.500, 0.157
134.600, 0.139
134.700, 0.141
134.800, 0.150
134.900, 0.140
135.000, 0.140
135.100, 0.144
135.200, 0.140
135.300, 0.141
135.400, 0.133
135.500, 0.155
135.600, 0.146
135.700, 0.140
135.800, 0.136
135.900, 0.134
136.000, 0.128
136.100, 0.125
136.200, 0.131
136.300, 0.144
136.400, 0.138
136.500, 0.146
136.600, 0.149
136.700, 0.150
136.800, 0.142
136.900, 0.130
137.000, 0.138
137.100, 0.135
137.200, 0.150
137.300, 0.135
137.400, 0.138
137.500, 0.134
137.600, 0.137
137.700, 0.138
137.800, 0.145
137.900, 0.144
138.000, 0.146
138.100, 0.151
138.200, 0.149
138.300, 0.134
138.400, 0.145
138.500, 0.145
138.600, 0.139
138.700, 0.143
138.800, 0.129
138.900, 0.139
139.000, 0.130
139.100, 0.131
139.200, 0.139
139.300, 0.136
139.400, 0.132
139.500, 0.141
139.600, 0.143
139.700, 0.137
139.800, 0.141
139.900, 0.141
140.000, 0.135
140.100, 0.133
140.200, 0.133
140.300, 0.132
140.400, 0.130
