Time (ps), RMSD (nm)
0.000, 0.001
0.100, 0.104
0.200, 0.127
0.300, 0.108
0.400, 0.125
0.500, 0.116
0.600, 0.125
0.700, 0.108
0.800, 0.123
0.900, 0.115
1.000, 0.117
1.100, 0.116
1.200, 0.110
1.300, 0.106
1.400, 0.106
1.500, 0.117
1.600, 0.120
1.700, 0.107
1.800, 0.106
1.900, 0.101
2.000, 0.103
2.100, 0.105
2.200, 0.102
2.300, 0.110
2.400, 0.115
2.500, 0.101
2.600, 0.108
2.700, 0.101
2.800, 0.093
2.900, 0.101
3.000, 0.098
3.100, 0.103
3.200, 0.097
3.300, 0.086
3.400, 0.077
3.500, 0.097
3.600, 0.091
3.700, 0.087
3.800, 0.078
3.900, 0.091
4.000, 0.085
4.100, 0.083
4.200, 0.088
4.300, 0.088
4.400, 0.079
4.500, 0.096
4.600, 0.085
4.700, 0.087
4.800, 0.081
4.900, 0.079
5.000, 0.071
5.100, 0.073
5.200, 0.077
5.300, 0.075
5.400, 0.077
5.500, 0.088
5.600, 0.083
5.700, 0.076
5.800, 0.078
5.900, 0.085
6.000, 0.077
6.100, 0.078
6.200, 0.080
6.300, 0.072
6.400, 0.080
6.500, 0.080
6.600, 0.082
6.700, 0.080
6.800, 0.084
6.900, 0.095
7.000, 0.094
7.100, 0.088
7.200, 0.087
7.300, 0.081
7.400, 0.082
7.500, 0.093
7.600, 0.082
7.700, 0.078
7.800, 0.080
7.900, 0.086
8.000, 0.074
8.100, 0.089
8.200, 0.083
8.300, 0.079
8.400, 0.085
8.500, 0.090
8.600, 0.087
8.700, 0.081
8.800, 0.078
8.900, 0.081
9.000, 0.075
9.100, 0.084
9.200, 0.077
9.300, 0.079
9.400, 0.084
9.500, 0.084
9.600, 0.084
9.700, 0.084
9.800, 0.081
9.900, 0.082
10.000, 0.098
10.100, 0.091
10.200, 0.089
10.300, 0.087
10.400, 0.097
10.500, 0.079
10.600, 0.082
10.700, 0.088
10.800, 0.086
10.900, 0.087
11.000, 0.086
11.100, 0.083
11.200, 0.087
11.300, 0.080
11.400, 0.082
11.500, 0.081
11.600, 0.082
11.700, 0.079
11.800, 0.085
11.900, 0.077
12.000, 0.078
12.100, 0.085
12.200, 0.080
12.300, 0.096
12.400, 0.091
12.500, 0.087
12.600, 0.087
12.700, 0.089
12.800, 0.089
12.900, 0.084
13.000, 0.090
13.100, 0.094
13.200, 0.090
13.300, 0.089
13.400, 0.094
13.500, 0.088
13.600, 0.095
13.700, 0.086
13.800, 0.092
13.900, 0.091
14.000, 0.082
14.100, 0.084
14.200, 0.085
14.300, 0.089
14.400, 0.092
14.500, 0.083
14.600, 0.079
14.700, 0.098
14.800, 0.085
14.900, 0.092
15.000, 0.099
15.100, 0.086
15.200, 0.083
15.300, 0.079
15.400, 0.075
15.500, 0.076
15.600, 0.079
15.700, 0.083
15.800, 0.083
15.900, 0.087
16.000, 0.083
16.100, 0.085
16.200, 0.085
16.300, 0.089
16.400, 0.081
16.500, 0.087
16.600, 0.073
16.700, 0.072
16.800, 0.076
16.900, 0.085
17.000, 0.086
17.100, 0.086
17.200, 0.090
17.300, 0.088
17.400, 0.079
17.500, 0.078
17.600, 0.082
17.700, 0.080
17.800, 0.078
17.900, 0.069
18.000, 0.079
18.100, 0.076
18.200, 0.078
18.300, 0.085
18.400, 0.087
18.500, 0.085
18.600, 0.085
18.700, 0.079
18.800, 0.075
18.900, 0.093
19.000, 0.080
19.100, 0.080
19.200, 0.087
19.300, 0.085
19.400, 0.084
19.500, 0.093
19.600, 0.081
19.700, 0.085
19.800, 0.086
19.900, 0.081
20.000, 0.085
20.100, 0.104
20.200, 0.080
20.300, 0.084
20.400, 0.085
20.500, 0.080
20.600, 0.083
20.700, 0.083
20.800, 0.077
20.900, 0.085
21.000, 0.086
21.100, 0.086
21.200, 0.084
21.300, 0.081
21.400, 0.088
21.500, 0.090
21.600, 0.093
21.700, 0.088
21.800, 0.084
21.900, 0.093
22.000, 0.089
22.100, 0.073
22.200, 0.080
22.300, 0.084
22.400, 0.080
22.500, 0.089
22.600, 0.091
22.700, 0.074
22.800, 0.085
22.900, 0.090
23.000, 0.085
23.100, 0.081
23.200, 0.084
23.300, 0.082
23.400, 0.083
23.500, 0.082
23.600, 0.082
23.700, 0.075
23.800, 0.088
23.900, 0.087
24.000, 0.088
24.100, 0.086
24.200, 0.072
24.300, 0.091
24.400, 0.075
24.500, 0.080
24.600, 0.079
24.700, 0.083
24.800, 0.076
24.900, 0.073
25.000, 0.078
25.100, 0.084
25.200, 0.076
25.300, 0.079
25.400, 0.082
25.500, 0.087
25.600, 0.084
25.700, 0.088
25.800, 0.085
25.900, 0.090
26.000, 0.092
26.100, 0.089
26.200, 0.079
26.300, 0.085
26.400, 0.083
26.500, 0.077
26.600, 0.076
26.700, 0.083
26.800, 0.079
26.900, 0.086
27.000, 0.088
27.100, 0.096
27.200, 0.082
27.300, 0.088
27.400, 0.083
27.500, 0.090
27.600, 0.089
27.700, 0.080
27.800, 0.074
27.900, 0.085
28.000, 0.080
28.100, 0.085
28.200, 0.089
28.300, 0.083
28.400, 0.088
28.500, 0.085
28.600, 0.087
28.700, 0.093
28.800, 0.095
28.900, 0.080
29.000, 0.083
29.100, 0.091
29.200, 0.083
29.300, 0.083
29.400, 0.083
29.500, 0.083
29.600, 0.086
29.700, 0.080
29.800, 0.084
29.900, 0.085
30.000, 0.085
30.100, 0.080
30.200, 0.082
30.300, 0.085
30.400, 0.092
30.500, 0.084
30.600, 0.077
30.700, 0.083
30.800, 0.084
30.900, 0.075
31.000, 0.086
31.100, 0.085
31.200, 0.095
31.300, 0.091
31.400, 0.092
31.500, 0.089
31.600, 0.095
31.700, 0.083
31.800, 0.092
31.900, 0.089
32.000, 0.101
32.100, 0.088
32.200, 0.091
32.300, 0.090
32.400, 0.085
32.500, 0.088
32.600, 0.083
32.700, 0.092
32.800, 0.081
32.900, 0.094
33.000, 0.093
33.100, 0.090
33.200, 0.097
33.300, 0.091
33.400, 0.082
33.500, 0.089
33.600, 0.091
33.700, 0.094
33.800, 0.087
33.900, 0.086
34.000, 0.089
34.100, 0.103
34.200, 0.090
34.300, 0.103
34.400, 0.098
34.500, 0.106
34.600, 0.097
34.700, 0.099
34.800, 0.096
34.900, 0.096
35.000, 0.093
35.100, 0.105
35.200, 0.096
35.300, 0.100
35.400, 0.086
35.500, 0.093
35.600, 0.094
35.700, 0.087
35.800, 0.085
35.900, 0.092
36.000, 0.085
36.100, 0.094
36.200, 0.094
36.300, 0.090
36.400, 0.092
36.500, 0.090
36.600, 0.090
36.700, 0.082
36.800, 0.089
36.900, 0.095
37.000, 0.087
37.100, 0.091
37.200, 0.098
37.300, 0.101
37.400, 0.109
37.500, 0.086
37.600, 0.088
37.700, 0.095
37.800, 0.094
37.900, 0.090
38.000, 0.096
38.100, 0.088
38.200, 0.095
38.300, 0.094
38.400, 0.089
38.500, 0.087
38.600, 0.095
38.700, 0.095
38.800, 0.088
38.900, 0.106
39.000, 0.089
39.100, 0.091
39.200, 0.088
39.300, 0.088
39.400, 0.095
39.500, 0.087
39.600, 0.096
39.700, 0.102
39.800, 0.095
39.900, 0.085
40.000, 0.091
40.100, 0.091
40.200, 0.085
40.300, 0.089
40.400, 0.097
40.500, 0.087
40.600, 0.097
40.700, 0.099
40.800, 0.101
40.900, 0.091
41.000, 0.094
41.100, 0.093
41.200, 0.081
41.300, 0.090
41.400, 0.088
41.500, 0.082
41.600, 0.086
41.700, 0.089
41.800, 0.078
41.900, 0.086
42.000, 0.083
42.100, 0.085
42.200, 0.079
42.300, 0.082
42.400, 0.094
42.500, 0.093
42.600, 0.083
42.700, 0.086
42.800, 0.082
42.900, 0.087
43.000, 0.090
43.100, 0.087
43.200, 0.083
43.300, 0.092
43.400, 0.086
43.500, 0.086
43.600, 0.089
43.700, 0.093
43.800, 0.084
43.900, 0.079
44.000, 0.090
44.100, 0.094
44.200, 0.082
44.300, 0.092
44.400, 0.106
44.500, 0.086
44.600, 0.100
44.700, 0.090
44.800, 0.087
44.900, 0.087
45.000, 0.082
45.100, 0.104
45.200, 0.092
45.300, 0.083
45.400, 0.088
45.500, 0.084
45.600, 0.084
45.700, 0.086
45.800, 0.084
45.900, 0.097
46.000, 0.087
46.100, 0.089
46.200, 0.083
46.300, 0.090
46.400, 0.079
46.500, 0.081
46.600, 0.092
46.700, 0.090
46.800, 0.093
46.900, 0.090
47.000, 0.095
47.100, 0.083
47.200, 0.091
47.300, 0.090
47.400, 0.097
47.500, 0.088
47.600, 0.084
47.700, 0.102
47.800, 0.094
47.900, 0.094
48.000, 0.095
48.100, 0.102
48.200, 0.097
48.300, 0.084
48.400, 0.094
48.500, 0.091
48.600, 0.083
48.700, 0.096
48.800, 0.089
48.900, 0.089
49.000, 0.083
49.100, 0.076
49.200, 0.095
49.300, 0.080
49.400, 0.090
49.500, 0.101
49.600, 0.092
49.700, 0.083
49.800, 0.099
49.900, 0.088
50.000, 0.090
50.100, 0.093
50.200, 0.095
50.300, 0.097
50.400, 0.092
50.500, 0.089
50.600, 0.099
50.700, 0.091
50.800, 0.094
50.900, 0.090
51.000, 0.085
51.100, 0.084
51.200, 0.086
51.300, 0.097
51.400, 0.091
51.500, 0.096
51.600, 0.082
51.700, 0.086
51.800, 0.090
51.900, 0.095
52.000, 0.093
52.100, 0.108
52.200, 0.098
52.300, 0.093
52.400, 0.080
52.500, 0.089
52.600, 0.099
52.700, 0.100
52.800, 0.088
52.900, 0.086
53.000, 0.090
53.100, 0.092
53.200, 0.088
53.300, 0.083
53.400, 0.082
53.500, 0.083
53.600, 0.087
53.700, 0.087
53.800, 0.086
53.900, 0.088
54.000, 0.084
54.100, 0.089
54.200, 0.088
54.300, 0.084
54.400, 0.078
54.500, 0.086
54.600, 0.085
54.700, 0.086
54.800, 0.079
54.900, 0.088
55.000, 0.090
55.100, 0.084
55.200, 0.087
55.300, 0.086
55.400, 0.078
55.500, 0.081
55.600, 0.077
55.700, 0.086
55.800, 0.087
55.900, 0.088
56.000, 0.096
56.100, 0.088
56.200, 0.097
56.300, 0.085
56.400, 0.086
56.500, 0.097
56.600, 0.099
56.700, 0.094
56.800, 0.092
56.900, 0.090
57.000, 0.092
57.100, 0.093
57.200, 0.079
57.300, 0.094
57.400, 0.093
57.500, 0.098
57.600, 0.095
57.700, 0.095
57.800, 0.083
57.900, 0.091
58.000, 0.089
58.100, 0.085
58.200, 0.093
58.300, 0.080
58.400, 0.081
58.500, 0.095
58.600, 0.091
58.700, 0.095
58.800, 0.087
58.900, 0.088
59.000, 0.087
59.100, 0.085
59.200, 0.096
59.300, 0.090
59.400, 0.094
59.500, 0.088
59.600, 0.097
59.700, 0.092
59.800, 0.094
59.900, 0.090
60.000, 0.089
60.100, 0.097
60.200, 0.092
60.300, 0.099
60.400, 0.085
60.500, 0.090
60.600, 0.096
60.700, 0.092
60.800, 0.093
60.900, 0.096
61.000, 0.092
61.100, 0.089
61.200, 0.097
61.300, 0.096
61.400, 0.088
61.500, 0.095
61.600, 0.104
61.700, 0.099
61.800, 0.093
61.900, 0.101
62.000, 0.101
62.100, 0.107
62.200, 0.097
62.300, 0.094
62.400, 0.096
62.500, 0.091
62.600, 0.094
62.700, 0.087
62.800, 0.096
62.900, 0.099
63.000, 0.096
63.100, 0.106
63.200, 0.096
63.300, 0.092
63.400, 0.097
63.500, 0.096
63.600, 0.099
63.700, 0.100
63.800, 0.091
63.900, 0.111
64.000, 0.104
64.100, 0.099
64.200, 0.089
64.300, 0.090
64.400, 0.096
64.500, 0.093
64.600, 0.103
64.700, 0.086
64.800, 0.091
64.900, 0.103
65.000, 0.100
65.100, 0.095
65.200, 0.088
65.300, 0.098
65.400, 0.107
65.500, 0.103
65.600, 0.113
65.700, 0.106
65.800, 0.103
65.900, 0.106
66.000, 0.110
66.100, 0.122
66.200, 0.119
66.300, 0.109
66.400, 0.100
66.500, 0.100
66.600, 0.103
66.700, 0.104
66.800, 0.106
66.900, 0.095
67.000, 0.095
67.100, 0.112
67.200, 0.104
67.300, 0.103
67.400, 0.098
67.500, 0.096
67.600, 0.096
67.700, 0.099
67.800, 0.099
67.900, 0.094
68.000, 0.105
68.100, 0.103
68.200, 0.105
68.300, 0.094
68.400, 0.106
68.500, 0.113
68.600, 0.105
68.700, 0.091
68.800, 0.100
68.900, 0.107
69.000, 0.095
69.100, 0.096
69.200, 0.100
69.300, 0.097
69.400, 0.099
69.500, 0.095
69.600, 0.098
69.700, 0.106
69.800, 0.104
69.900, 0.107
70.000, 0.105
70.100, 0.102
70.200, 0.108
70.300, 0.100
70.400, 0.094
70.500, 0.109
70.600, 0.098
70.700, 0.101
70.800, 0.097
70.900, 0.087
71.000, 0.095
71.100, 0.092
71.200, 0.103
71.300, 0.089
71.400, 0.102
71.500, 0.100
71.600, 0.099
71.700, 0.106
71.800, 0.097
71.900, 0.100
72.000, 0.107
72.100, 0.099
72.200, 0.106
72.300, 0.097
72.400, 0.107
72.500, 0.107
72.600, 0.095
72.700, 0.114
72.800, 0.099
72.900, 0.095
73.000, 0.100
73.100, 0.096
73.200, 0.100
73.300, 0.106
73.400, 0.100
73.500, 0.102
73.600, 0.104
73.700, 0.097
73.800, 0.094
73.900, 0.099
74.000, 0.102
74.100, 0.102
74.200, 0.104
74.300, 0.100
74.400, 0.095
74.500, 0.107
74.600, 0.095
74.700, 0.095
74.800, 0.097
74.900, 0.117
75.000, 0.104
75.100, 0.107
75.200, 0.105
75.300, 0.101
75.400, 0.095
75.500, 0.098
75.600, 0.100
75.700, 0.094
75.800, 0.098
75.900, 0.101
76.000, 0.100
76.100, 0.096
76.200, 0.104
76.300, 0.102
76.400, 0.099
76.500, 0.096
76.600, 0.092
76.700, 0.094
76.800, 0.097
76.900, 0.103
77.000, 0.098
77.100, 0.112
77.200, 0.102
77.300, 0.104
77.400, 0.112
77.500, 0.107
77.600, 0.113
77.700, 0.105
77.800, 0.111
77.900, 0.104
78.000, 0.111
78.100, 0.105
78.200, 0.115
78.300, 0.124
78.400, 0.103
78.500, 0.105
78.600, 0.102
78.700, 0.108
78.800, 0.100
78.900, 0.105
79.000, 0.106
79.100, 0.103
79.200, 0.105
79.300, 0.100
79.400, 0.107
79.500, 0.097
79.600, 0.103
79.700, 0.095
79.800, 0.105
79.900, 0.095
80.000, 0.090
80.100, 0.095
80.200, 0.090
80.300, 0.095
80.400, 0.099
80.500, 0.094
80.600, 0.100
80.700, 0.102
80.800, 0.098
80.900, 0.099
81.000, 0.098
81.100, 0.088
81.200, 0.093
81.300, 0.094
81.400, 0.094
81.500, 0.094
81.600, 0.085
81.700, 0.093
81.800, 0.086
81.900, 0.089
82.000, 0.086
82.100, 0.084
82.200, 0.090
82.300, 0.097
82.400, 0.096
82.500, 0.090
82.600, 0.094
82.700, 0.096
82.800, 0.089
82.900, 0.102
83.000, 0.097
83.100, 0.092
83.200, 0.091
83.300, 0.088
83.400, 0.098
83.500, 0.102
83.600, 0.103
83.700, 0.100
83.800, 0.104
83.900, 0.102
84.000, 0.104
84.100, 0.094
84.200, 0.101
84.300, 0.099
84.400, 0.094
84.500, 0.095
84.600, 0.090
84.700, 0.095
84.800, 0.098
84.900, 0.097
85.000, 0.090
85.100, 0.096
85.200, 0.097
85.300, 0.097
85.400, 0.103
85.500, 0.107
85.600, 0.093
85.700, 0.090
85.800, 0.097
85.900, 0.089
86.000, 0.100
86.100, 0.092
86.200, 0.102
86.300, 0.091
86.400, 0.091
86.500, 0.092
86.600, 0.099
86.700, 0.101
86.800, 0.101
86.900, 0.099
87.000, 0.095
87.100, 0.097
87.200, 0.105
87.300, 0.103
87.400, 0.091
87.500, 0.091
87.600, 0.101
87.700, 0.099
87.800, 0.095
87.900, 0.091
88.000, 0.092
88.100, 0.106
88.200, 0.091
88.300, 0.087
88.400, 0.085
88.500, 0.097
88.600, 0.090
88.700, 0.092
88.800, 0.090
88.900, 0.101
89.000, 0.100
89.100, 0.096
89.200, 0.089
89.300, 0.099
89.400, 0.098
89.500, 0.096
89.600, 0.102
89.700, 0.089
89.800, 0.099
89.900, 0.093
90.000, 0.094
90.100, 0.094
90.200, 0.093
90.300, 0.108
90.400, 0.102
90.500, 0.089
90.600, 0.097
90.700, 0.086
90.800, 0.094
90.900, 0.102
91.000, 0.109
91.100, 0.102
91.200, 0.105
91.300, 0.092
91.400, 0.092
91.500, 0.103
91.600, 0.091
91.700, 0.096
91.800, 0.089
91.900, 0.086
92.000, 0.093
92.100, 0.098
92.200, 0.090
92.300, 0.114
92.400, 0.089
92.500, 0.100
92.600, 0.087
92.700, 0.086
92.800, 0.092
92.900, 0.084
93.000, 0.092
93.100, 0.092
93.200, 0.094
93.300, 0.091
93.400, 0.097
93.500, 0.085
93.600, 0.097
93.700, 0.089
93.800, 0.087
93.900, 0.089
94.000, 0.086
94.100, 0.100
94.200, 0.085
94.300, 0.104
94.400, 0.094
94.500, 0.093
94.600, 0.091
94.700, 0.104
94.800, 0.093
94.900, 0.103
95.000, 0.095
95.100, 0.091
95.200, 0.085
95.300, 0.079
95.400, 0.084
95.500, 0.091
95.600, 0.087
95.700, 0.094
95.800, 0.085
95.900, 0.085
96.000, 0.091
96.100, 0.088
96.200, 0.089
96.300, 0.090
96.400, 0.094
96.500, 0.090
96.600, 0.090
96.700, 0.096
96.800, 0.096
96.900, 0.090
97.000, 0.100
97.100, 0.086
97.200, 0.097
97.300, 0.092
97.400, 0.100
97.500, 0.095
97.600, 0.100
97.700, 0.101
97.800, 0.092
97.900, 0.099
98.000, 0.092
98.100, 0.085
98.200, 0.093
98.300, 0.093
98.400, 0.104
98.500, 0.103
98.600, 0.097
98.700, 0.100
98.800, 0.093
98.900, 0.097
99.000, 0.095
99.100, 0.102
99.200, 0.096
99.300, 0.088
99.400, 0.101
99.500, 0.095
99.600, 0.089
99.700, 0.096
99.800, 0.103
99.900, 0.097
100.000, 0.106
100.100, 0.094
100.200, 0.105
100.300, 0.100
100.400, 0.104
100.500, 0.102
100.600, 0.108
100.700, 0.107
100.800, 0.096
100.900, 0.098
101.000, 0.112
101.100, 0.104
101.200, 0.109
101.300, 0.100
101.400, 0.096
101.500, 0.084
101.600, 0.091
101.700, 0.095
101.800, 0.096
101.900, 0.094
102.000, 0.097
102.100, 0.093
102.200, 0.100
102.300, 0.096
102.400, 0.093
102.500, 0.094
102.600, 0.102
102.700, 0.104
102.800, 0.099
102.900, 0.096
103.000, 0.096
103.100, 0.100
103.200, 0.097
103.300, 0.094
103.400, 0.105
103.500, 0.095
103.600, 0.101
103.700, 0.087
103.800, 0.090
103.900, 0.103
104.000, 0.100
104.100, 0.104
104.200, 0.094
104.300, 0.092
104.400, 0.098
104.500, 0.091
104.600, 0.098
104.700, 0.092
104.800, 0.094
104.900, 0.096
105.000, 0.092
105.100, 0.091
105.200, 0.086
105.300, 0.103
105.400, 0.098
105.500, 0.098
105.600, 0.100
105.700, 0.090
105.800, 0.094
105.900, 0.090
106.000, 0.096
106.100, 0.102
106.200, 0.092
106.300, 0.093
106.400, 0.098
106.500, 0.102
106.600, 0.089
106.700, 0.104
106.800, 0.091
106.900, 0.104
107.000, 0.104
107.100, 0.105
107.200, 0.090
107.300, 0.095
107.400, 0.090
107.500, 0.096
107.600, 0.095
107.700, 0.102
107.800, 0.092
107.900, 0.092
108.000, 0.092
108.100, 0.098
108.200, 0.085
108.300, 0.092
108.400, 0.094
108.500, 0.092
108.600, 0.084
108.700, 0.089
108.800, 0.097
108.900, 0.094
109.000, 0.088
109.100, 0.100
109.200, 0.092
109.300, 0.098
109.400, 0.089
109.500, 0.090
109.600, 0.089
109.700, 0.099
109.800, 0.097
109.900, 0.087
110.000, 0.088
110.100, 0.099
110.200, 0.097
110.300, 0.093
110.400, 0.087
110.500, 0.089
110.600, 0.097
110.700, 0.094
110.800, 0.101
110.900, 0.097
111.000, 0.107
111.100, 0.094
111.200, 0.095
111.300, 0.089
111.400, 0.095
111.500, 0.092
111.600, 0.093
111.700, 0.104
111.800, 0.094
111.900, 0.092
112.000, 0.087
112.100, 0.098
112.200, 0.090
112.300, 0.094
112.400, 0.100
112.500, 0.102
112.600, 0.095
112.700, 0.095
112.800, 0.088
112.900, 0.087
113.000, 0.101
113.100, 0.111
113.200, 0.095
113.300, 0.094
113.400, 0.097
113.500, 0.102
113.600, 0.118
113.700, 0.093
113.800, 0.095
113.900, 0.094
114.000, 0.100
114.100, 0.092
114.200, 0.099
114.300, 0.098
114.400, 0.099
114.500, 0.096
114.600, 0.094
114.700, 0.094
114.800, 0.088
114.900, 0.103
115.000, 0.101
115.100, 0.095
115.200, 0.101
115.300, 0.092
115.400, 0.098
115.500, 0.088
115.600, 0.087
115.700, 0.094
115.800, 0.092
115.900, 0.092
116.000, 0.092
116.100, 0.095
116.200, 0.094
116.300, 0.098
116.400, 0.098
116.500, 0.100
116.600, 0.096
116.700, 0.103
116.800, 0.098
116.900, 0.102
117.000, 0.100
117.100, 0.097
117.200, 0.098
117.300, 0.120
117.400, 0.107
117.500, 0.100
117.600, 0.101
117.700, 0.112
117.800, 0.107
117.900, 0.105
118.000, 0.106
118.100, 0.109
118.200, 0.098
118.300, 0.107
118.400, 0.120
118.500, 0.117
118.600, 0.102
118.700, 0.100
118.800, 0.113
118.900, 0.107
119.000, 0.109
119.100, 0.102
119.200, 0.110
119.300, 0.121
119.400, 0.110
119.500, 0.102
119.600, 0.098
119.700, 0.113
119.800, 0.115
119.900, 0.104
120.000, 0.116
120.100, 0.119
120.200, 0.127
120.300, 0.118
120.400, 0.111
120.500, 0.113
120.600, 0.132
120.700, 0.119
120.800, 0.136
120.900, 0.135
121.000, 0.128
121.100, 0.137
121.200, 0.126
121.300, 0.116
121.400, 0.118
121.500, 0.119
121.600, 0.118
121.700, 0.108
121.800, 0.101
121.900, 0.109
122.000, 0.097
122.100, 0.101
122.200, 0.111
122.300, 0.101
122.400, 0.097
122.500, 0.108
122.600, 0.114
122.700, 0.103
122.800, 0.119
122.900, 0.115
123.000, 0.102
123.100, 0.112
123.200, 0.112
123.300, 0.098
123.400, 0.105
123.500, 0.113
123.600, 0.120
123.700, 0.120
123.800, 0.114
123.900, 0.122
124.000, 0.115
124.100, 0.094
124.200, 0.091
124.300, 0.092
124.400, 0.084
124.500, 0.111
124.600, 0.099
124.700, 0.100
124.800, 0.107
124.900, 0.102
125.000, 0.099
125.100, 0.110
125.200, 0.110
125.300, 0.107
125.400, 0.111
125.500, 0.111
125.600, 0.105
125.700, 0.112
125.800, 0.119
125.900, 0.143
126.000, 0.107
126.100, 0.097
126.200, 0.092
126.300, 0.094
126.400, 0.100
126.500, 0.090
126.600, 0.083
126.700, 0.098
126.800, 0.095
126.900, 0.095
127.000, 0.092
127.100, 0.099
127.200, 0.089
127.300, 0.087
127.400, 0.093
127.500, 0.091
127.600, 0.095
127.700, 0.090
127.800, 0.084
127.900, 0.082
128.000, 0.092
128.100, 0.089
128.200, 0.091
128.300, 0.082
128.400, 0.089
128.500, 0.099
128.600, 0.098
128.700, 0.108
128.800, 0.102
128.900, 0.097
129.000, 0.097
129.100, 0.097
129.200, 0.095
129.300, 0.096
129.400, 0.099
129.500, 0.095
129.600, 0.090
129.700, 0.090
129.800, 0.086
129.900, 0.091
130.000, 0.092
130.100, 0.096
130.200, 0.100
130.300, 0.082
130.400, 0.087
130.500, 0.094
130.600, 0.083
130.700, 0.088
130.800, 0.092
130.900, 0.085
131.000, 0.088
131.100, 0.090
131.200, 0.102
131.300, 0.099
131.400, 0.096
131.500, 0.086
131.600, 0.087
131.700, 0.099
131.800, 0.084
131.900, 0.092
132.000, 0.091
132.100, 0.084
132.200, 0.081
132.300, 0.093
132.400, 0.086
132.500, 0.083
132.600, 0.083
132.700, 0.093
132.800, 0.091
132.900, 0.089
133.000, 0.086
133.100, 0.091
133.200, 0.075
133.300, 0.078
133.400, 0.087
133.500, 0.074
133.600, 0.077
133.700, 0.083
133.800, 0.072
133.900, 0.074
134.000, 0.078
134.100, 0.076
134.200, 0.084
134.300, 0.086
134.400, 0.088
134.500, 0.083
134.600, 0.083
134.700, 0.077
134.800, 0.079
134.900, 0.089
135.000, 0.092
135.100, 0.094
135.200, 0.086
135.300, 0.087
135.400, 0.088
135.500, 0.093
135.600, 0.089
135.700, 0.097
135.800, 0.081
135.900, 0.091
136.000, 0.090
136.100, 0.073
136.200, 0.091
136.300, 0.081
136.400, 0.088
136.500, 0.080
136.600, 0.084
136.700, 0.085
136.800, 0.096
136.900, 0.078
137.000, 0.090
137.100, 0.090
137.200, 0.086
137.300, 0.092
137.400, 0.098
137.500, 0.083
137.600, 0.076
137.700, 0.076
137.800, 0.086
137.900, 0.091
138.000, 0.083
138.100, 0.080
138.200, 0.080
138.300, 0.073
138.400, 0.083
138.500, 0.086
138.600, 0.097
138.700, 0.087
138.800, 0.094
138.900, 0.088
139.000, 0.084
139.100, 0.079
139.200, 0.091
139.300, 0.082
139.400, 0.078
139.500, 0.084
139.600, 0.075
139.700, 0.077
139.800, 0.085
139.900, 0.077
140.000, 0.082
140.100, 0.087
140.200, 0.087
140.300, 0.089
140.400, 0.089
